# www.neaspec.com
# Scan:	 	Whitelight Imaging
# Project:	 	20251007_PS
# Description:	 	
# Date:	 	10/07/2025 13:27:15
# Scanner Center Position (X, Y):	[µm]	49.99	50.01	 
# Rotation:	[°]	0	 	 
# Scan Area (X, Y, Z):	[µm]	5.000	5.000	0.000
# Pixel Area (X, Y, Z):	[px]	100	100	1
# Interferometer Center/Distance:	[µm]	548.096	0.000	 
# Averaging:	 	1	 	 
# Integration time:	[ms]	5	 	 
# Wavenumber Scaling:	 	1.000000	 	 
# Laser Source:	 	4.5-15 µm nano-FTIR laser
# Detector:	 	R
# Target Wavelength:	[µm]	7.502	 	 
# Demodulation Mode:	 	Fourier
# Tip Frequency:	[Hz]	241,340.500	 	 
# Tip Amplitude:	[mV]	45.700	 	 
# Tapping Amplitude:	[nm]	77.130	 	 
# Modulation Frequency:	[Hz]	0.000	 	 
# Modulation Amplitude:	[mV]	0.000	 	 
# Modulation Offset:	[mV]	0.000	 	 
# Setpoint:	[%]	79.75	 	 
# Regulator (P, I, D):	 	4.206850	8.625812	1.000000
# Tip Potential:	[mV]	0.000	 	 
# M1A Scaling:	[nm/V]	0.426	 	 
# M1A Cantilever Factor:	 	1,000	 	 
# Q-Factor:	 	487.4	 	 
# Version:	 	2.1.11536.0
14.852102      	14.842178      	14.713927      	14.506554      	14.4417925     	14.67303       	14.725806      	14.485344      	14.660573      	14.6327715     	14.395651      	14.125417      	14.9643545     	14.213729      	14.597785      	14.473769      	14.398745      	13.944075      	12.054886      	11.476612      	10.936001      	10.82978       	10.879889      	11.435768      	11.369807      	11.557939      	11.580242      	11.435909      	11.555149      	11.324581      	11.609008      	11.221955      	11.290909      	11.529784      	11.409142      	11.283168      	11.507371      	11.541104      	11.3229685     	11.415235      	11.344638      	11.22629       	11.252159      	11.174038      	11.138365      	11.370383      	11.159279      	11.400763      	11.660811      	11.26464       	11.75877       	12.194502      	11.846471      	12.404475      	11.120246      	11.956107      	12.044048      	12.811653      	15.132194      	16.063444      	15.526267      	15.572954      	15.207159      	15.211916      	15.275174      	15.016158      	15.035351      	15.00549       	14.844115      	14.891768      	15.013778      	14.965039      	14.91674       	15.1754055     	15.11718       	14.840151      	14.736237      	14.780986      	14.962186      	14.742278      	14.778249      	14.677617      	14.457975      	14.771199      	14.874346      	14.612284      	14.678464      	14.833278      	14.888364      	14.609242      	14.784955      	14.87391       	14.61365       	14.962337      	14.718301      	14.866405      	14.874092      	14.6182375     	14.497877      	14.871574      	
14.519674      	14.521989      	14.838484      	15.086467      	14.952397      	15.194747      	14.810608      	14.759979      	14.716904      	15.08564       	14.74489       	14.860678      	14.6896925     	14.805816      	14.895634      	14.6067705     	14.706738      	14.339267      	12.056033      	11.627683      	11.271411      	11.210998      	10.999693      	11.270883      	11.899055      	11.549399      	11.954789      	11.728468      	12.224252      	11.360627      	11.459246      	11.694288      	11.579993      	11.595806      	11.586798      	11.704488      	11.390411      	11.518242      	11.56696       	11.361143      	11.877799      	11.653451      	11.575747      	11.689378      	11.503069      	11.471535      	11.89124       	12.1065645     	12.401746      	11.817211      	12.148174      	12.301524      	12.380665      	12.099367      	12.392016      	12.652268      	13.221273      	13.8715515     	16.616114      	15.6669235     	15.347553      	15.494734      	15.287739      	14.836641      	15.282766      	15.156697      	15.051931      	15.265907      	15.085868      	15.064217      	15.058563      	15.069662      	14.981785      	15.098111      	15.015983      	15.046496      	15.156841      	14.699584      	15.290768      	15.046701      	14.899385      	15.07495       	14.967341      	14.859871      	14.737538      	14.867058      	14.809678      	14.961932      	15.007266      	15.179556      	14.713745      	15.284614      	14.601233      	14.625478      	15.455686      	14.928694      	15.118794      	14.810199      	14.776611      	14.851349      	
14.552614      	14.6025        	14.722668      	14.565817      	14.49798       	15.1410055     	14.485172      	15.361488      	14.611597      	15.085978      	14.742969      	15.050594      	14.7988        	14.80059       	14.950181      	14.723662      	14.808529      	14.765831      	12.498142      	11.740588      	11.238578      	11.342397      	11.208254      	11.327289      	11.396076      	11.511851      	11.499851      	11.602217      	11.836694      	11.339609      	11.576845      	11.494588      	11.337421      	11.62919       	11.4713        	11.366208      	11.259268      	11.838729      	11.71056       	11.810921      	11.829578      	12.015824      	12.1360235     	12.028463      	12.495519      	12.447723      	12.417177      	12.263707      	11.574331      	11.519272      	12.161705      	12.688671      	12.713077      	12.796789      	13.074121      	13.762733      	14.37833       	15.374708      	15.955739      	15.099012      	14.777503      	14.847335      	14.620241      	14.9570875     	14.510138      	14.665723      	14.517969      	15.010738      	14.854811      	14.741025      	14.862026      	14.832652      	14.406209      	14.569089      	15.005421      	14.694814      	14.642262      	14.748763      	14.544767      	14.623567      	15.085912      	14.649418      	14.587901      	14.766543      	14.545261      	14.623771      	14.383615      	14.675917      	14.532052      	15.391818      	14.058223      	14.620855      	15.408467      	13.937936      	14.709877      	14.876843      	14.579965      	14.891383      	14.6485195     	15.326067      	
14.481349      	14.420745      	14.792957      	14.937143      	14.456056      	14.886399      	15.907308      	15.012548      	15.083934      	14.871881      	14.657921      	14.789883      	14.808819      	14.721832      	14.409462      	14.637348      	14.614653      	14.580558      	13.294532      	11.597581      	11.633954      	11.283987      	11.224266      	11.642675      	11.567077      	11.675087      	11.640721      	11.459691      	11.785615      	11.37411       	11.565336      	11.299793      	11.302439      	11.374434      	11.417466      	11.115304      	11.505454      	11.462894      	12.22846       	11.605657      	12.140087      	12.0369        	12.586614      	12.499103      	12.46992       	12.755932      	13.056148      	13.600114      	13.747345      	13.206866      	13.479457      	13.952187      	14.120215      	14.543955      	14.799212      	15.33235       	16.03501       	14.443358      	14.839847      	14.753323      	14.520148      	14.516384      	14.673291      	14.572248      	14.768309      	14.602297      	14.530562      	15.36063       	15.054535      	14.9692745     	15.275605      	14.787607      	14.567374      	14.65754       	15.225615      	14.90281       	14.539331      	15.1575575     	14.885402      	14.699266      	15.125314      	15.020452      	14.7664795     	14.763954      	14.995442      	14.829803      	14.477215      	14.467744      	14.704658      	14.331768      	14.619951      	14.456373      	14.792109      	14.654605      	14.463269      	14.973245      	15.221114      	14.887715      	15.15726       	15.02468       	
14.351197      	14.348978      	14.655648      	15.066682      	14.914098      	14.866949      	14.896043      	14.560802      	14.7348175     	14.757456      	14.7347555     	14.740059      	14.472617      	14.959489      	14.467261      	14.735328      	14.672558      	14.994402      	13.534223      	11.671493      	11.298647      	11.233255      	11.20062       	11.201941      	11.238956      	11.6245575     	11.709471      	11.747347      	11.583411      	11.440778      	10.993403      	11.207627      	11.432666      	11.216091      	11.585319      	11.495157      	11.252587      	12.084723      	12.273652      	12.3427515     	12.613361      	12.437917      	12.762022      	13.246513      	13.123685      	13.28782       	13.5093775     	14.509929      	14.639525      	15.408149      	15.39805       	15.33155       	16.204319      	15.375376      	15.400732      	16.228334      	15.441976      	15.511259      	15.52009       	14.9938965     	14.955313      	15.266353      	15.173797      	15.138945      	14.972083      	14.955675      	15.404906      	15.119231      	14.935159      	15.045424      	15.19957       	15.207281      	14.832206      	14.902877      	14.712876      	14.75066       	15.37473       	15.0365305     	15.014502      	15.087652      	15.020597      	15.313579      	14.631894      	15.148868      	14.559789      	14.7517        	14.992962      	15.176969      	14.834668      	15.022107      	14.695218      	15.16793       	14.938622      	14.992988      	14.960905      	15.203897      	14.767196      	14.99197       	15.680263      	14.231706      	
14.141469      	14.350613      	14.527929      	14.899293      	14.710728      	14.71269       	14.817095      	14.721837      	14.796019      	14.699301      	14.529764      	14.727211      	14.537113      	15.036587      	14.372583      	14.841018      	14.576134      	14.999201      	13.919054      	11.84338       	11.684516      	11.355962      	10.901397      	11.1007595     	11.3171015     	11.331266      	11.441947      	11.448984      	12.168844      	11.80768       	11.209827      	11.553334      	11.969983      	12.580487      	12.263923      	12.5544405     	12.474726      	11.953079      	12.385018      	12.798453      	13.263327      	13.126122      	13.530199      	14.458328      	14.974093      	14.928021      	15.731064      	15.812166      	15.984299      	14.98215       	14.936515      	15.119114      	14.660042      	15.222848      	15.101438      	15.809009      	14.842928      	14.824512      	15.147186      	14.692163      	14.950994      	14.694322      	14.812708      	15.112053      	14.751653      	14.905137      	14.873125      	15.255666      	14.891039      	14.7708025     	15.181701      	14.705069      	15.54259       	14.90531       	14.471013      	15.002814      	14.6224575     	14.803834      	15.1208515     	14.750658      	14.88796       	14.93979       	15.033835      	14.901002      	14.882735      	14.638599      	15.176037      	14.760339      	14.866441      	15.704292      	14.570071      	14.835873      	15.797645      	14.782201      	14.699441      	15.640948      	14.3530855     	14.829813      	14.916807      	14.7452        	
14.80861       	14.504321      	14.534899      	14.976594      	15.184559      	14.812919      	14.837975      	14.915586      	15.366904      	14.980794      	14.897727      	15.07274       	14.738506      	15.148933      	14.774367      	15.022578      	14.6652775     	15.231763      	14.335708      	12.215397      	11.751735      	11.632228      	11.531745      	11.503072      	11.764716      	11.909645      	11.544938      	11.993426      	12.249616      	11.6954775     	11.987807      	12.487317      	12.24865       	12.600631      	12.475845      	12.516682      	12.218981      	12.48948       	13.660002      	14.014748      	14.86274       	15.562389      	15.5159855     	14.631302      	14.668268      	14.537741      	14.600712      	14.398764      	14.459196      	14.937316      	14.485203      	14.679801      	14.800735      	14.149839      	14.801959      	14.661751      	14.680244      	14.469785      	14.7719755     	14.591304      	14.920622      	14.470052      	14.51158       	14.524924      	15.0776        	14.808507      	15.40477       	13.858727      	14.505904      	14.552254      	14.431384      	14.789657      	14.391747      	14.5069        	15.238721      	14.3662615     	14.790923      	13.977548      	14.222853      	14.1876955     	14.236064      	14.431905      	14.450146      	14.415615      	14.698222      	14.397497      	14.523395      	14.32364       	14.654309      	14.43359       	14.675478      	14.429231      	15.506178      	15.233763      	14.261678      	14.850237      	15.249092      	14.801204      	15.284763      	15.043343      	
14.388266      	14.447484      	14.687938      	15.130695      	15.03774       	14.904344      	15.017395      	15.1511965     	14.580689      	15.05586       	14.731767      	14.79403       	14.770302      	14.431467      	14.756013      	14.400237      	14.4551525     	14.910242      	14.73399       	13.727934      	12.756455      	12.996339      	12.768137      	12.434816      	12.552678      	12.234453      	12.055384      	12.756196      	12.019105      	12.681061      	12.7399        	13.044272      	13.222483      	13.478063      	13.769804      	14.740175      	14.159218      	14.228349      	16.317818      	16.424263      	15.6935835     	15.261399      	14.830168      	14.310599      	14.681067      	15.300881      	14.913046      	14.422624      	14.787921      	14.728962      	14.60084       	14.608484      	15.189909      	14.59151       	14.834459      	14.818886      	14.968611      	14.545989      	14.737455      	15.315071      	14.971037      	14.583726      	15.058511      	14.913213      	14.690021      	15.060243      	14.331635      	15.085084      	15.342987      	14.524223      	14.92227       	14.740163      	14.635883      	14.669122      	14.557499      	14.790146      	14.895582      	14.662304      	14.689         	14.941408      	14.620161      	15.023482      	14.6411        	15.0948715     	15.301064      	14.620662      	14.745945      	14.66975       	14.559925      	14.504749      	14.927173      	15.0235195     	14.954352      	14.584427      	14.666379      	14.573186      	15.553073      	14.484243      	14.789833      	14.86615       	
14.432933      	14.490646      	14.570083      	14.466113      	14.479124      	14.542109      	14.625516      	14.693613      	14.597673      	14.691418      	14.799979      	14.967451      	14.749478      	14.740558      	14.478713      	14.642304      	14.960129      	14.355233      	15.09617       	15.262147      	14.743277      	12.932929      	12.418343      	12.566169      	12.789398      	12.630009      	12.846438      	12.520326      	12.946101      	13.357763      	13.996655      	14.449654      	14.469753      	15.6667595     	15.066109      	15.757444      	14.569499      	14.520294      	14.682528      	13.611655      	14.427161      	14.123503      	14.259758      	15.253175      	14.156714      	14.616412      	14.071516      	14.507611      	14.667586      	14.090103      	14.992854      	14.19548       	14.736665      	14.298449      	14.446004      	14.613353      	14.273405      	14.164589      	14.370449      	14.355627      	14.318067      	14.710809      	14.591573      	14.336481      	14.518954      	14.844114      	14.617255      	14.59357       	14.53154       	14.455747      	14.308748      	14.596308      	15.047078      	14.399585      	14.415789      	14.651105      	14.686876      	14.657021      	14.436169      	15.04999       	14.376474      	14.633137      	14.637181      	14.289744      	14.302774      	14.56725       	14.481599      	14.914909      	14.234449      	14.343283      	14.148767      	14.5569        	14.786751      	14.540385      	14.545487      	14.689108      	14.039323      	14.965689      	14.3076315     	14.786525      	
14.518793      	14.606018      	14.679739      	15.652368      	15.590714      	15.064274      	15.168149      	14.869907      	14.766414      	15.09972       	14.761793      	15.317487      	15.425454      	14.728252      	15.164894      	14.935504      	14.893419      	15.086277      	14.769738      	15.286084      	16.277296      	15.0293865     	14.025896      	13.866319      	14.039152      	13.589091      	13.401489      	14.301942      	14.560847      	15.498073      	15.393086      	14.801177      	14.607796      	15.125701      	15.520345      	14.652892      	15.215103      	14.643353      	13.966316      	14.735906      	16.084652      	15.115745      	14.762638      	14.765895      	14.8196945     	14.520216      	14.132049      	14.866599      	14.527654      	14.612649      	14.978539      	14.346217      	14.91412       	14.531119      	14.500449      	14.714594      	14.663488      	14.656095      	14.585021      	15.027265      	15.128222      	14.672263      	15.106223      	14.667151      	15.319737      	15.463984      	14.994613      	14.852426      	14.879018      	14.649678      	14.8706875     	14.604331      	14.938896      	14.936624      	14.654737      	14.69006       	14.98314       	15.148909      	16.361645      	15.225752      	15.507525      	14.698085      	14.898742      	14.944678      	14.845635      	15.338667      	14.896375      	14.886917      	15.057996      	14.584223      	14.855726      	14.424004      	14.798345      	15.2857        	14.718101      	15.077395      	14.879997      	14.99929       	14.672577      	14.658248      	
14.318165      	14.4256315     	14.448214      	14.660402      	15.11967       	15.144962      	14.929551      	14.932219      	14.815965      	14.934019      	15.076143      	15.446103      	14.783103      	15.037567      	14.861298      	15.113373      	14.757175      	14.973121      	15.220234      	14.559405      	15.126099      	15.160392      	15.032505      	14.596478      	14.76095       	15.088114      	16.149458      	15.090353      	15.104585      	14.787257      	14.419847      	14.978289      	14.67957       	14.507468      	14.663187      	14.525343      	14.438124      	15.039387      	14.836709      	14.938447      	15.081239      	15.131726      	14.944586      	15.15437       	15.005295      	14.569899      	14.428571      	14.877175      	15.41813       	15.189042      	14.477858      	14.876312      	14.359537      	14.929072      	14.847497      	14.684848      	14.555616      	14.592338      	14.817264      	15.622336      	15.477726      	14.561767      	14.906963      	15.222529      	15.021028      	14.832072      	14.310161      	14.769309      	14.2783575     	14.7834635     	14.761829      	14.747329      	14.459862      	14.821389      	14.629037      	14.877501      	14.550221      	14.764219      	14.939196      	14.385652      	15.139173      	14.733033      	14.707224      	15.029543      	14.851937      	14.593393      	14.8743305     	14.593608      	15.179793      	15.000788      	15.286177      	14.058985      	14.809914      	14.912056      	14.790006      	14.96269       	15.794962      	14.95587       	14.93166       	14.673936      	
14.297635      	14.3740425     	14.866804      	15.2876215     	14.799359      	14.707243      	14.758968      	15.039539      	14.878918      	14.593968      	14.844626      	14.838308      	14.460305      	14.878285      	14.771099      	14.754817      	14.580399      	14.628986      	14.761353      	14.711036      	14.576683      	14.688939      	15.1127615     	14.451465      	14.579076      	14.360804      	14.593303      	14.242318      	14.598648      	14.745195      	14.544141      	14.378618      	14.486621      	14.510103      	14.752578      	14.516228      	14.52184       	14.508604      	14.620343      	14.407866      	14.56976       	14.537995      	14.705622      	14.66953       	14.632104      	14.469922      	14.625856      	14.589434      	14.534494      	14.742137      	14.385203      	14.865861      	14.768312      	14.333873      	14.712283      	14.193213      	14.405905      	14.651951      	14.925348      	14.680723      	14.677393      	14.6842985     	14.562903      	14.548586      	14.774028      	14.681164      	14.730015      	14.685649      	14.7473345     	14.844264      	14.621178      	14.902669      	14.768187      	14.879287      	14.606844      	14.810767      	15.041309      	14.609462      	14.963955      	14.871606      	14.89285       	14.841774      	14.892663      	14.557181      	14.918214      	14.62664       	14.837717      	14.560405      	14.704986      	14.652924      	14.718115      	14.421853      	14.804766      	14.972044      	14.944338      	14.825345      	15.312519      	14.44271       	14.647796      	14.804114      	
14.634845      	14.585337      	15.013266      	15.154169      	14.823931      	14.9451        	15.116049      	14.886783      	15.243638      	14.989487      	14.829404      	15.261007      	14.876368      	14.964403      	15.013855      	14.671213      	14.953007      	14.803278      	14.61101       	14.738083      	14.928242      	14.831111      	14.709204      	14.758411      	14.908406      	14.730359      	14.529503      	14.814578      	14.927851      	14.55403       	14.783466      	14.721035      	14.507972      	14.542975      	14.768897      	14.6766        	14.535548      	14.837514      	15.142524      	14.313329      	14.435715      	14.618579      	14.756421      	14.546484      	14.397538      	14.758337      	14.709509      	14.963955      	14.523901      	14.561997      	14.460722      	14.595962      	14.9072485     	14.613279      	14.459563      	14.54248       	14.4106245     	15.499737      	14.908965      	15.594336      	14.837712      	14.469164      	15.147324      	14.64723       	14.973983      	15.02907       	14.882551      	15.024946      	14.929796      	15.244914      	14.585572      	14.818967      	14.64376       	14.720068      	14.94552       	14.7967615     	15.028713      	14.897782      	14.7749605     	14.914755      	14.564294      	15.001681      	14.804149      	14.918896      	14.711732      	14.740869      	15.008136      	14.879713      	16.067358      	14.616144      	14.817862      	14.975764      	14.570735      	14.736767      	14.90482       	14.481535      	14.866817      	14.754602      	14.600308      	14.630012      	
14.303244      	14.5039625     	15.448881      	15.350412      	14.651369      	15.245951      	15.358075      	15.023179      	15.1022215     	15.572399      	14.795821      	14.764757      	15.127002      	14.786201      	14.771789      	14.976302      	14.857061      	14.70315       	14.570486      	14.804217      	14.870462      	15.072997      	15.263637      	15.157058      	14.4951515     	15.524918      	14.799634      	14.374452      	14.605215      	14.353871      	15.121354      	14.377427      	14.497872      	14.878871      	14.719241      	14.664709      	14.59437       	14.35138       	14.555496      	14.674506      	14.708733      	14.930983      	14.929048      	14.680062      	14.616865      	14.75204       	14.744627      	14.918969      	14.601616      	14.599287      	14.63355       	14.596669      	14.756945      	14.702956      	14.674248      	14.7112875     	14.552591      	14.560251      	14.465165      	14.383929      	14.837714      	14.968631      	14.373668      	14.364649      	14.813202      	14.348722      	14.538075      	14.967063      	14.9797735     	14.754949      	14.862578      	14.663673      	14.497021      	14.786201      	14.475606      	14.808613      	14.639327      	14.889894      	14.879817      	14.231016      	14.982403      	14.585531      	14.74455       	14.58336       	14.799247      	14.683242      	14.228463      	14.991222      	14.515747      	14.871695      	14.791118      	14.847034      	14.56673       	14.828973      	14.487073      	15.319474      	14.281513      	14.467421      	14.932286      	14.321966      	
14.2906        	14.437641      	14.88436       	15.357564      	14.85533       	14.855997      	15.070886      	15.09631       	14.840989      	15.209652      	14.98814       	14.915847      	15.397614      	14.7644415     	14.906425      	14.610395      	15.029134      	15.664426      	14.727779      	14.807564      	15.062875      	14.6079855     	14.936912      	14.666698      	14.536113      	14.866129      	14.634298      	14.875468      	14.735708      	14.775256      	14.563789      	14.973513      	14.603195      	14.734406      	14.835151      	14.549154      	14.79782       	14.5969925     	14.45999       	14.645952      	14.65313       	14.54276       	14.633947      	14.47989       	14.865408      	14.51358       	14.624268      	14.92287       	14.798452      	14.651196      	14.518559      	14.697061      	14.54114       	14.274465      	15.134472      	14.264726      	14.251623      	14.736391      	14.494751      	14.609404      	14.717857      	14.761574      	14.934845      	14.63058       	14.469937      	15.012755      	14.291844      	14.548331      	15.794808      	15.6617155     	15.1104555     	15.036775      	14.815134      	15.125289      	15.031308      	14.7496605     	14.896771      	14.957153      	15.064431      	14.910775      	15.12713       	14.54877       	14.815912      	14.892914      	15.481511      	15.368482      	14.886492      	14.537692      	15.197494      	14.699419      	14.751814      	14.743918      	14.679131      	14.620924      	15.045383      	15.546779      	15.027446      	14.960719      	14.996436      	14.99924       	
14.458372      	14.722336      	14.942008      	14.87077       	14.746076      	14.708884      	14.995737      	14.818988      	15.7116785     	14.759765      	14.587132      	14.782503      	14.832357      	14.500049      	14.767903      	14.762751      	14.950875      	14.856463      	14.731092      	14.5841465     	15.012546      	14.951074      	14.913455      	15.013947      	14.788487      	14.785236      	14.654215      	14.715685      	14.954627      	14.554458      	14.558347      	14.619756      	14.490176      	14.906281      	14.594553      	14.992302      	14.569331      	14.652993      	15.091597      	14.553074      	14.78799       	14.596462      	15.014725      	14.586872      	14.564706      	14.953054      	14.742072      	14.699794      	14.848834      	14.718597      	15.169191      	14.992516      	14.952629      	14.9696245     	14.96904       	14.802527      	14.75671       	14.622533      	14.618402      	14.6921015     	14.91422       	15.852096      	14.507053      	14.702549      	14.707768      	15.000277      	14.915586      	14.998303      	14.510392      	14.952159      	14.721034      	14.764688      	14.6914835     	15.3179655     	15.035806      	15.710705      	14.623835      	14.811187      	14.781776      	15.454194      	14.960374      	15.003994      	15.074585      	15.250947      	15.249797      	14.524832      	14.79993       	14.871884      	15.13953       	14.603782      	14.539914      	14.890605      	14.819214      	14.857581      	14.809466      	14.908895      	14.823245      	15.152704      	14.837176      	14.607253      	
14.310871      	14.500734      	14.607304      	14.51955       	14.412886      	14.538497      	15.178951      	15.472942      	14.949949      	14.923006      	15.245547      	14.957499      	14.975723      	14.8108425     	14.810772      	14.678483      	15.20223       	14.948631      	15.118105      	14.860686      	15.423168      	14.97744       	15.132975      	14.906487      	15.036735      	14.9423895     	14.742487      	15.141339      	14.8072405     	14.919614      	15.119171      	14.850391      	14.748165      	14.749562      	14.811889      	14.8828945     	14.7667885     	15.192359      	15.151058      	14.701183      	14.526812      	14.92292       	14.75232       	14.963299      	14.8961735     	14.784861      	15.010005      	14.928707      	14.642582      	14.887852      	14.483504      	14.827611      	14.86854       	14.739271      	14.4583        	15.312244      	14.713744      	14.729494      	14.992258      	14.537958      	15.178543      	15.320312      	15.105596      	14.631547      	14.931363      	14.742215      	14.832476      	14.72843       	14.834118      	15.118235      	14.828098      	15.306724      	14.634614      	14.761393      	14.842069      	14.771971      	14.941944      	15.0812025     	14.766707      	14.444326      	15.194408      	14.416041      	15.303564      	16.219343      	14.995351      	14.9290905     	15.02156       	15.016472      	15.020125      	14.985941      	14.854624      	15.038222      	15.199319      	14.771747      	15.425762      	15.010989      	14.833078      	15.027976      	14.906473      	14.806214      	
14.383786      	14.411504      	14.624695      	14.748499      	14.93699       	14.946687      	15.043739      	14.97591       	14.584289      	14.763144      	14.909404      	14.552722      	14.779335      	14.6448965     	15.195552      	14.713837      	14.901018      	14.839779      	15.120058      	14.843591      	14.984554      	14.726355      	15.075207      	14.83574       	15.000025      	14.551114      	15.142166      	14.706416      	14.898109      	14.978456      	14.93279       	15.041431      	15.05752       	14.598697      	14.793665      	14.944226      	15.065269      	15.119805      	14.992273      	14.719964      	14.854024      	14.844231      	14.973115      	14.509007      	14.972147      	15.076285      	14.320071      	14.998515      	14.724524      	14.962476      	14.978838      	14.877325      	14.668862      	14.73711       	14.958982      	14.892463      	14.980611      	14.4411545     	14.919417      	15.023283      	14.821093      	14.719207      	15.065313      	14.634891      	14.996419      	15.45211       	14.760626      	15.0869055     	14.825858      	14.67806       	14.655288      	14.974592      	14.88183       	15.097394      	15.1698        	15.487737      	14.393758      	14.999155      	15.007826      	15.04362       	14.953211      	14.600735      	15.033629      	15.092073      	14.53824       	15.108795      	14.432754      	15.167235      	14.5298395     	14.80233       	14.372424      	14.880978      	14.616695      	14.679642      	14.80433       	14.32004       	14.5699625     	14.485342      	14.75596       	14.608245      	
14.629918      	14.666786      	14.720883      	14.96239       	14.967957      	14.734812      	14.947918      	14.810566      	15.026538      	14.934446      	14.714626      	14.743668      	14.525921      	14.642381      	14.636721      	14.897814      	14.674512      	14.859523      	14.887584      	14.571983      	14.660665      	14.593187      	14.874451      	14.975475      	14.676969      	14.828292      	14.817549      	14.417014      	14.616509      	14.560966      	14.733624      	14.692917      	14.562503      	14.457424      	14.2536955     	14.611704      	14.940394      	14.695844      	14.635705      	14.840781      	14.534642      	14.706822      	14.573788      	14.536879      	14.79533       	14.799336      	14.911266      	14.722061      	14.817677      	14.683617      	14.905124      	14.909366      	14.801234      	14.748695      	14.829867      	14.565868      	14.606661      	14.837171      	14.481006      	14.638323      	14.680071      	14.932583      	14.773492      	15.277766      	15.05064       	15.302545      	15.976747      	14.906625      	14.918596      	15.05357       	14.680752      	14.905385      	14.988439      	14.839804      	15.270904      	15.130567      	14.890424      	15.1532135     	14.885314      	14.968422      	15.177451      	15.179534      	15.065726      	15.072563      	14.708543      	15.581603      	15.152315      	14.7736225     	15.089771      	15.020789      	14.703309      	14.93592       	14.888313      	15.197278      	14.783175      	14.583675      	13.492124      	12.778614      	12.062697      	11.73111       	
14.317115      	14.639656      	14.736         	14.604333      	15.023356      	14.696898      	14.9436        	14.578343      	14.7404785     	14.742051      	14.511238      	14.9110155     	14.937331      	15.239726      	14.873052      	14.946755      	14.682372      	14.941532      	14.605105      	14.686274      	14.725429      	14.596997      	14.760023      	14.738104      	14.323701      	14.975558      	14.760746      	14.220874      	14.796751      	14.53358       	14.820961      	15.119726      	14.500469      	15.089098      	14.806484      	14.6956835     	15.153518      	14.930342      	14.97525       	14.660042      	14.899849      	15.005891      	14.720339      	14.9219265     	14.765757      	15.087019      	15.239848      	14.864163      	14.875581      	15.547881      	14.70489       	14.873292      	15.02091       	14.851104      	14.71412       	14.627496      	14.743716      	15.055497      	14.863561      	14.535917      	15.379319      	15.052262      	15.001261      	15.3968        	14.702669      	15.052107      	15.312263      	14.891071      	14.762623      	15.00679       	14.664174      	15.170159      	14.849667      	14.876998      	15.281299      	14.839974      	14.93885       	15.167976      	14.806166      	15.054301      	14.927635      	14.624833      	14.862621      	14.989862      	14.703788      	14.785518      	15.383342      	14.811564      	15.078216      	14.9683275     	15.190459      	14.49129       	13.17775       	12.078022      	11.6876335     	11.575313      	11.659753      	11.454841      	11.317763      	11.4480715     	
14.613725      	14.659305      	15.204084      	14.861792      	14.955728      	14.616887      	14.923589      	14.9334955     	14.9138        	14.8166065     	14.784931      	15.055644      	14.425789      	15.102934      	15.20837       	14.578021      	14.73814       	14.848004      	14.720495      	14.742962      	14.439047      	14.793799      	14.911761      	14.65795       	14.732903      	14.707207      	14.925556      	14.183388      	14.526669      	14.689577      	14.826506      	14.75          	14.849018      	14.975277      	15.009647      	14.582181      	14.78229       	14.859782      	14.939645      	14.828989      	14.755941      	14.654916      	14.657039      	14.781545      	14.530631      	14.8099375     	15.294762      	15.149132      	14.779432      	14.801033      	15.063738      	14.63342       	14.694428      	14.705775      	14.824194      	15.055914      	14.623394      	14.8048115     	14.602127      	14.269247      	14.569307      	15.044153      	14.876934      	15.037673      	14.875017      	15.04537       	14.68139       	14.875181      	14.833244      	15.107012      	14.72511       	14.987228      	14.890012      	15.11149       	14.697237      	15.179035      	14.868081      	14.927205      	14.8427105     	14.600589      	14.900621      	14.889934      	14.675898      	14.9723425     	14.890014      	15.186653      	15.257066      	14.745342      	14.448818      	12.202634      	11.536202      	11.241099      	11.444664      	11.28551       	11.071942      	11.151482      	11.118263      	11.011304      	11.072276      	11.183895      	
14.482492      	14.591322      	14.763932      	14.6413145     	14.862582      	15.220059      	15.103845      	15.134672      	15.006968      	14.771229      	15.010669      	15.171153      	15.012456      	14.755044      	15.068144      	14.850532      	14.843743      	14.69687       	14.954733      	14.98702       	14.931824      	14.803324      	14.788951      	15.047295      	14.7040205     	14.948522      	14.739211      	14.579708      	14.689751      	14.992882      	14.858931      	14.953863      	15.468668      	14.546632      	15.57511       	15.187163      	14.93297       	14.901987      	15.195364      	15.01003       	14.928724      	14.580567      	14.5571575     	14.971967      	14.764697      	15.0942        	14.9138155     	15.227112      	16.563213      	15.397919      	15.301463      	15.12492       	14.849136      	14.953745      	15.177155      	15.190258      	14.850836      	15.126147      	15.141686      	14.809659      	14.511499      	14.607048      	14.891096      	14.934459      	14.859209      	15.412327      	15.080763      	15.120024      	15.046118      	14.983919      	15.147601      	14.688366      	15.331523      	14.618823      	15.006993      	14.996778      	15.112196      	14.801572      	15.142701      	15.179963      	14.831675      	15.294079      	15.196193      	15.075241      	14.642141      	15.114285      	15.540602      	13.788643      	12.17145       	11.325308      	11.022583      	11.195874      	11.2473955     	11.338824      	11.211849      	11.27978       	11.162094      	11.810212      	11.337946      	11.523614      	
14.466268      	14.377974      	14.66127       	14.507323      	14.404217      	14.736148      	14.705786      	14.475325      	14.524755      	14.58363       	14.380298      	14.757113      	14.424387      	14.785209      	14.799788      	14.723485      	14.455128      	14.611725      	14.755733      	14.837033      	14.626726      	14.746021      	14.604818      	14.797698      	14.601636      	15.117218      	14.91667       	15.1525755     	14.777968      	14.851629      	15.432518      	14.589369      	15.025634      	15.074948      	14.844855      	15.039569      	14.693444      	14.868914      	15.262215      	14.868674      	14.779551      	14.949243      	14.821458      	14.720621      	15.051771      	14.784913      	15.128558      	15.045061      	15.03851       	15.469496      	14.344746      	14.809943      	15.382651      	14.542643      	15.081258      	14.895595      	15.003611      	14.569174      	14.92632       	15.032999      	14.941851      	15.292492      	14.619556      	14.710202      	14.898863      	15.021838      	15.082911      	15.317712      	14.696112      	14.773143      	14.878174      	14.60405       	15.028053      	15.155482      	14.724124      	14.790113      	14.954626      	14.806079      	14.804769      	14.855064      	14.799442      	14.744032      	14.727043      	15.332852      	14.397219      	14.22708       	14.511955      	12.217865      	11.428478      	11.195122      	11.0513315     	11.269618      	11.332181      	11.023191      	11.4599285     	11.45346       	11.300036      	11.652943      	11.762562      	11.984071      	
14.336569      	14.542655      	14.845125      	14.7056675     	14.811105      	14.61392       	14.421503      	14.688786      	14.610695      	14.707459      	14.6323595     	14.554363      	14.425927      	14.723797      	14.480777      	14.773589      	14.914941      	15.065986      	15.042831      	14.916025      	14.561421      	14.729958      	14.862682      	14.707147      	14.99444       	15.039403      	14.6469965     	14.774227      	14.220769      	14.480349      	14.894273      	14.2134285     	14.389792      	14.782432      	14.603013      	14.4681835     	14.519071      	14.555186      	15.013216      	16.169867      	15.648853      	15.106723      	14.915202      	14.8721895     	14.550395      	14.958249      	14.747826      	14.80993       	14.540942      	14.579258      	14.54865       	14.603274      	14.688618      	14.702039      	14.535491      	14.82303       	14.85002       	14.612668      	14.546276      	14.571288      	14.814204      	14.908431      	14.80724       	14.674275      	14.782352      	14.874911      	15.5262985     	16.203764      	15.339549      	15.359332      	14.950855      	15.242879      	15.279388      	14.681343      	15.016981      	14.915         	14.751598      	14.854539      	14.748138      	14.741827      	14.580992      	14.845817      	14.641944      	14.61087       	15.154596      	14.454402      	14.329541      	12.413637      	11.797969      	11.162602      	10.742033      	10.886101      	11.339957      	11.958274      	11.503048      	11.730346      	11.410174      	11.668959      	12.262763      	11.304848      	
14.457076      	14.568208      	14.74902       	14.686374      	14.77817       	14.747062      	14.290944      	14.477264      	14.702         	14.632746      	14.486535      	14.608953      	15.389866      	14.649006      	15.522885      	14.813407      	15.289733      	15.312568      	14.552527      	15.233276      	14.944298      	14.873978      	14.869245      	15.359665      	15.2131405     	15.132142      	16.528234      	16.146086      	15.480091      	15.728028      	15.298401      	15.279177      	14.923617      	15.246934      	15.187901      	15.290697      	15.173256      	14.772032      	14.822735      	14.992779      	15.032536      	15.078765      	14.908144      	15.266909      	15.538503      	15.801058      	15.420112      	14.903526      	15.024133      	14.855119      	15.082632      	15.176777      	15.399936      	15.086035      	15.234067      	14.870319      	15.151345      	15.051041      	14.679465      	14.680045      	14.865272      	14.837446      	15.388428      	14.778988      	14.499135      	14.767573      	14.718059      	14.866565      	14.749751      	14.522936      	14.479248      	14.743457      	14.8497095     	14.661479      	14.547507      	14.711995      	14.772061      	14.870069      	15.584188      	14.575878      	14.895484      	14.863939      	14.653205      	15.097853      	14.772303      	14.840438      	14.652707      	12.545502      	11.914612      	11.631112      	11.364904      	11.364712      	11.254754      	11.424474      	11.511544      	11.513793      	11.430088      	11.468257      	11.50094       	11.295343      	
14.393097      	14.483262      	14.514174      	14.359649      	14.450486      	14.731139      	14.77707       	14.783588      	14.568206      	14.595071      	14.440004      	14.231275      	14.5182495     	14.72214       	14.572137      	14.511798      	14.323331      	14.5408535     	14.6138935     	14.169348      	14.5765705     	14.295968      	14.719503      	14.4853        	14.398546      	14.803951      	14.457351      	14.625132      	14.766733      	14.562758      	14.386466      	14.516888      	14.398019      	14.747246      	14.875547      	14.427026      	14.528672      	15.215296      	14.722266      	15.040127      	15.178115      	14.6039        	14.851937      	15.055562      	14.780223      	15.140268      	15.080171      	14.572477      	15.317573      	15.056471      	14.974021      	14.812204      	14.9532585     	14.747333      	15.010189      	14.805378      	14.81612       	15.108484      	15.46446       	14.766786      	14.998769      	14.773011      	15.395806      	14.958624      	14.846643      	15.129138      	15.0403805     	14.939185      	14.697929      	14.595657      	14.974373      	14.614038      	14.600146      	14.940528      	14.900212      	14.502167      	14.959762      	14.836171      	14.70731       	14.949276      	14.812668      	14.413145      	14.780129      	14.938286      	14.683734      	15.006908      	15.206025      	12.584387      	11.957938      	11.620021      	11.329893      	11.250323      	11.458045      	11.790801      	11.669125      	11.818212      	11.476538      	11.286961      	11.572876      	11.793948      	
14.463308      	14.558694      	14.654207      	14.719521      	14.783567      	14.632666      	14.558246      	14.563053      	14.826854      	14.468449      	14.57207       	14.491686      	14.695654      	14.776483      	14.793445      	14.913565      	14.939702      	14.921107      	14.654606      	15.368374      	14.953927      	14.866095      	14.978101      	14.924053      	14.922452      	14.668461      	14.808917      	14.746693      	14.924701      	14.449938      	14.677875      	14.875484      	14.636244      	14.806654      	15.044402      	15.219994      	15.696597      	14.738687      	14.765651      	14.700111      	14.763844      	14.835525      	14.973684      	14.926902      	14.75402       	14.912087      	15.01298       	15.210853      	14.624655      	14.842052      	14.804868      	14.833301      	15.354823      	14.757595      	15.172824      	15.150924      	14.882842      	14.628092      	14.736228      	14.735336      	14.900437      	15.622055      	14.27766       	15.528997      	16.053442      	15.733974      	15.527234      	15.1642685     	15.331449      	15.133203      	14.868859      	14.633353      	14.923712      	15.157921      	14.667795      	14.926135      	14.886089      	14.959626      	14.909323      	15.290252      	15.097557      	14.93689       	15.056911      	14.931736      	15.016419      	14.924815      	15.0601845     	13.648539      	12.169338      	11.9373255     	11.569491      	11.2494335     	11.359913      	11.594974      	11.622354      	11.922603      	11.707639      	11.5835705     	11.3282        	11.612236      	
14.644698      	14.779073      	14.728638      	14.644812      	14.663915      	14.613796      	14.628401      	15.009914      	15.086896      	14.5387945     	15.215349      	15.194592      	14.608815      	15.028781      	14.923421      	14.977002      	14.964369      	14.915416      	15.517824      	14.576149      	14.913125      	15.166861      	14.747086      	15.186761      	15.117727      	15.0309515     	14.994953      	14.548522      	14.894223      	15.074636      	14.932944      	14.775789      	14.923354      	15.035842      	14.506654      	14.610302      	15.002319      	14.521599      	14.800245      	14.656471      	15.138276      	15.262064      	14.91268       	14.7242        	14.865691      	15.088468      	15.044683      	14.804714      	15.0364895     	15.015315      	14.580082      	14.917991      	14.868122      	14.982864      	14.769736      	14.781438      	14.666159      	14.566231      	14.185827      	12.253642      	11.956658      	12.276955      	12.554758      	13.474369      	15.789247      	15.778564      	16.200563      	15.599459      	14.980998      	14.891285      	14.980323      	14.861127      	14.609826      	14.993577      	14.950046      	14.691433      	14.686105      	14.6796055     	14.627648      	14.73328       	14.754909      	14.296122      	14.700707      	14.564563      	14.42755       	14.594465      	14.87467       	14.570663      	12.562584      	11.794589      	11.392474      	11.006005      	11.117074      	11.315973      	11.712128      	12.015426      	11.782361      	11.665263      	11.688059      	11.762423      	
14.725124      	14.867163      	14.895019      	15.037445      	15.534468      	14.830788      	14.701826      	14.744181      	14.7976055     	14.785287      	14.900801      	14.912227      	14.805837      	15.004239      	14.957776      	15.207901      	14.989327      	15.147155      	15.029969      	14.994231      	15.150949      	15.094309      	14.976533      	15.070668      	14.987447      	14.720224      	15.512158      	14.847413      	14.944633      	15.230174      	15.440575      	14.916437      	14.9931965     	14.844898      	14.851242      	15.176792      	14.792461      	14.875927      	14.908193      	14.90454       	14.809656      	14.688069      	14.79457       	14.704776      	14.674101      	15.424078      	14.8226795     	14.7764635     	14.638695      	15.35818       	14.489121      	14.559015      	14.932116      	14.920306      	14.875266      	12.858331      	11.974572      	11.715892      	11.734725      	11.414438      	10.975227      	11.260036      	11.297614      	11.933644      	13.608157      	14.798614      	15.327171      	14.688426      	14.705024      	14.847133      	15.275791      	14.7938795     	14.82178       	14.869135      	14.875052      	14.758877      	14.994031      	15.006         	14.796244      	14.970215      	14.8311405     	14.855219      	14.737312      	15.032149      	14.965341      	14.516478      	14.74399       	14.83152       	12.995537      	12.171033      	11.938797      	11.328855      	11.280511      	11.484211      	11.67994       	11.932622      	11.8965225     	11.83341       	11.818872      	11.953218      	
14.34982       	14.3996105     	14.484225      	14.526731      	14.51704       	14.701915      	14.873034      	14.50407       	14.678703      	14.81942       	15.023284      	14.8798895     	15.496961      	15.149452      	15.064208      	14.827037      	15.407169      	16.007008      	15.212404      	15.184351      	15.292173      	14.991029      	15.314402      	15.489793      	14.87382       	14.993188      	15.287307      	15.040415      	15.071603      	15.1119795     	15.078522      	14.872603      	14.8696995     	15.62877       	15.398604      	15.002071      	15.1160555     	15.012182      	15.291306      	14.584105      	15.124334      	15.366609      	14.705217      	14.876817      	14.701122      	15.131996      	14.548865      	15.293664      	14.572391      	14.545712      	13.1709795     	12.416836      	11.836293      	11.66847       	11.859673      	11.395617      	11.383407      	11.228425      	11.236807      	11.122042      	11.056404      	11.166708      	11.16671       	11.901388      	12.699744      	15.487858      	14.323212      	15.292222      	14.796221      	14.801945      	14.832919      	14.764423      	15.251051      	14.703099      	14.981544      	14.992425      	14.84059       	14.681         	14.872432      	14.748082      	15.059388      	14.979852      	14.891581      	14.508342      	14.600699      	14.984349      	14.591286      	14.751668      	13.759679      	12.203699      	11.928539      	11.236707      	11.481877      	11.430057      	12.208739      	11.694165      	11.397798      	11.955796      	11.585767      	11.637559      	
14.577596      	14.494297      	14.769635      	14.899822      	14.485756      	14.523034      	14.567128      	14.502421      	14.371319      	14.9899        	15.20108       	15.53869       	14.422528      	15.027434      	15.308935      	14.555393      	15.215897      	15.071094      	15.006288      	15.292522      	14.896116      	14.948584      	15.140435      	15.304143      	15.103604      	15.017187      	14.8284025     	15.321048      	14.827232      	15.109285      	15.137947      	14.918286      	14.920785      	14.933865      	14.825523      	14.729658      	15.071344      	15.104636      	14.882515      	14.910413      	14.923968      	14.900206      	14.72288       	15.144778      	14.69039       	13.581287      	12.877527      	12.3212805     	11.785658      	11.636596      	11.345083      	11.118125      	11.320273      	11.077156      	11.068353      	11.355475      	11.021269      	11.1889715     	11.344866      	11.239339      	11.016631      	11.055306      	11.245771      	11.9893465     	12.606389      	14.7599745     	15.681091      	14.982462      	15.133497      	15.391599      	15.006187      	15.288721      	15.346938      	15.463402      	15.140989      	15.219146      	15.203304      	15.167736      	14.695031      	14.608226      	14.930762      	15.040444      	14.8569145     	15.094916      	14.692605      	14.993361      	15.016912      	14.95079       	13.451455      	12.185956      	11.804693      	11.512421      	11.46437       	11.267948      	11.467508      	11.66298       	11.664035      	11.568051      	11.440414      	11.595672      	
14.235954      	14.109273      	14.2192        	14.916076      	16.018085      	14.755634      	14.767436      	14.703377      	14.98662       	14.813334      	14.681456      	14.8235655     	15.188362      	14.863124      	15.483722      	15.819578      	15.289424      	15.241098      	15.070385      	15.645543      	14.715684      	15.015894      	15.117538      	15.088086      	14.782001      	14.785691      	15.561266      	14.846965      	15.232599      	15.196643      	14.966183      	14.602255      	15.241466      	14.902859      	14.487552      	15.060818      	14.636336      	15.270485      	14.6772375     	14.971155      	15.005911      	13.927438      	12.810197      	12.039639      	11.611803      	11.440384      	11.472332      	11.075335      	11.146208      	11.230918      	11.159511      	11.150421      	11.176333      	11.53127       	11.611235      	11.611348      	11.344168      	11.607153      	11.408985      	11.144055      	11.100805      	11.41875       	11.142476      	11.360619      	12.957091      	13.9935665     	15.78398       	15.169037      	14.948057      	14.934811      	14.763358      	14.806609      	14.974952      	14.791409      	15.172624      	14.602939      	14.851113      	14.968119      	14.651985      	14.9942665     	15.221399      	14.416972      	14.484944      	15.418434      	14.445867      	14.921905      	15.046276      	15.929534      	14.291663      	12.113159      	11.865616      	11.5036955     	11.084799      	11.193731      	11.632409      	11.460049      	11.583563      	11.818772      	11.883203      	11.72638       	
14.505076      	14.468235      	14.546246      	15.121822      	15.902741      	15.919861      	15.449118      	15.295582      	15.389343      	15.202089      	15.046369      	14.7214155     	14.950457      	15.005903      	14.924655      	15.006686      	15.002806      	15.156509      	15.420312      	15.038283      	15.273791      	15.171358      	15.038996      	15.082859      	15.046251      	15.1120825     	15.172232      	15.313534      	15.256409      	15.109118      	14.927783      	14.546911      	14.66337       	15.36225       	14.994694      	14.446475      	14.245224      	12.375562      	12.2034645     	12.2138815     	11.476777      	11.141447      	11.161043      	11.089907      	11.20828       	11.096381      	11.228736      	11.358973      	11.66845       	11.300633      	11.464282      	11.363549      	11.369785      	11.623025      	11.471607      	11.416687      	11.576004      	11.712739      	11.5806        	11.648663      	11.422273      	11.17233       	11.240968      	11.176879      	12.393722      	14.061518      	15.6763735     	14.589504      	14.663951      	14.749954      	15.021254      	15.118998      	14.8313875     	15.049531      	15.035209      	15.210045      	14.863886      	15.003124      	15.221645      	14.677344      	15.03393       	15.113433      	15.214777      	15.048469      	14.637981      	15.262357      	15.109622      	15.340988      	14.711603      	12.660052      	12.070039      	11.58005       	11.231091      	11.399624      	11.469302      	11.878272      	11.471505      	11.46247       	11.491852      	11.650726      	
15.252141      	15.28914       	15.168689      	14.887816      	15.0167265     	15.483848      	14.822565      	14.906985      	15.433887      	14.98736       	14.697999      	15.087477      	14.517917      	14.952394      	15.040764      	15.538392      	16.240406      	15.334438      	15.199398      	15.362915      	15.052904      	15.574559      	15.105923      	15.26825       	15.25316       	15.034016      	15.262297      	15.019743      	15.095378      	14.912675      	14.690321      	14.538227      	14.860842      	13.874687      	12.284886      	11.926049      	11.769443      	11.297797      	11.298268      	11.328925      	11.144871      	10.861336      	10.922774      	11.112693      	11.312071      	11.183783      	11.267944      	11.763353      	11.074657      	11.680611      	11.3390875     	11.365587      	11.687453      	11.283847      	11.607281      	11.69793       	11.704991      	11.427525      	11.588754      	11.52097       	11.682338      	11.286169      	11.222826      	11.05528       	11.627226      	13.698801      	15.58282       	15.210783      	15.207026      	15.17205       	15.114759      	14.907754      	14.531769      	14.767456      	15.79316       	14.67793       	15.115097      	14.981251      	15.397         	14.55397       	14.683169      	14.693626      	15.069693      	14.683129      	14.743982      	14.833474      	14.8736725     	14.81172       	14.918599      	13.682426      	12.147188      	11.786546      	11.324002      	11.198202      	11.120992      	11.375291      	11.886974      	11.763349      	11.021732      	11.363185      	
14.23191       	14.31205       	15.1313505     	16.445211      	15.680754      	15.141321      	14.950479      	14.7021475     	14.969511      	14.887127      	15.219465      	14.976538      	15.017353      	15.345246      	14.879998      	15.137248      	15.780068      	15.463121      	15.196122      	15.248216      	15.069554      	14.685605      	15.499704      	15.313925      	15.204585      	15.088165      	14.576042      	14.909872      	15.082404      	14.346382      	12.2155        	11.6873        	11.584049      	11.65063       	11.045133      	11.27131       	11.250094      	11.613873      	11.3272505     	11.439806      	11.314984      	11.245077      	11.243335      	11.067839      	11.401744      	11.278679      	11.271407      	11.756834      	11.089838      	11.546145      	11.700776      	11.835531      	11.916941      	11.561299      	11.535484      	11.444145      	11.514716      	11.552951      	11.324441      	11.607007      	11.37682       	11.515501      	11.348353      	11.550878      	11.438422      	12.771795      	15.350815      	15.927894      	15.459024      	15.310385      	15.690078      	14.946736      	14.810403      	15.444302      	15.465523      	14.488774      	14.949212      	14.973306      	15.32072       	15.109747      	15.500792      	14.604455      	15.488507      	14.740832      	14.913986      	16.160591      	15.062751      	15.295885      	14.760881      	14.175298      	12.357923      	12.020913      	11.552086      	11.378645      	11.488603      	11.732298      	11.689558      	11.877382      	11.663551      	11.546974      	
14.753556      	14.931433      	14.879218      	14.54486       	14.454166      	14.575118      	14.3878145     	14.740719      	14.452231      	14.404092      	15.126573      	15.081834      	15.04836       	15.261397      	15.129311      	15.232291      	15.140433      	15.277797      	15.1036625     	15.138636      	15.171142      	15.781607      	14.908145      	15.764386      	15.972169      	15.012351      	14.881272      	14.853539      	13.0711        	11.516887      	11.032312      	11.13972       	11.066068      	11.294094      	11.207939      	11.198232      	11.346442      	11.236874      	11.112596      	11.127889      	11.153041      	11.000979      	11.081354      	11.416226      	11.503429      	11.657953      	11.468126      	11.63569       	11.778238      	11.384639      	11.415179      	11.711208      	11.738906      	11.559404      	11.828336      	11.804053      	11.491393      	12.170652      	11.505036      	11.626678      	11.061108      	11.251652      	11.369223      	11.232503      	11.678474      	12.522955      	13.886747      	16.03366       	15.117502      	14.684102      	14.520156      	14.72355       	15.008749      	15.544387      	14.415816      	15.421031      	14.8037615     	14.955058      	14.677152      	14.827299      	14.556101      	14.929702      	15.335846      	15.247344      	15.495634      	14.789543      	14.85777       	14.843731      	14.816214      	14.24196       	12.495499      	11.97126       	11.448253      	11.171197      	11.039002      	11.263588      	11.7746935     	11.780348      	11.763478      	11.677498      	
14.637712      	14.590235      	14.76538       	14.544508      	14.46459       	14.57127       	14.542176      	14.458093      	14.535045      	14.795447      	14.741698      	14.961615      	14.097246      	14.518525      	14.610344      	15.634518      	14.654986      	15.361952      	14.607254      	14.656505      	15.407086      	14.720286      	14.873731      	15.095002      	14.794974      	15.120922      	15.480254      	12.941535      	11.845264      	11.23798       	11.202488      	11.113372      	11.112826      	11.272656      	11.439755      	11.658124      	11.552594      	11.347365      	11.887118      	11.363753      	11.495596      	11.736713      	11.615216      	11.39655       	11.385549      	11.56985       	11.873831      	11.475764      	11.57825       	11.472966      	12.014794      	11.603602      	11.537171      	11.683291      	11.372938      	11.579877      	12.007028      	11.506465      	11.543625      	11.68876       	11.859007      	11.578196      	11.183122      	11.042901      	11.614374      	11.946343      	13.694394      	15.340012      	15.145709      	14.5334        	14.791359      	15.157883      	14.918576      	14.773704      	14.796956      	15.03381       	14.746176      	14.809358      	14.736662      	14.929951      	14.474719      	14.65734       	14.752198      	14.736028      	14.648693      	14.532078      	15.268023      	14.502366      	14.607241      	15.157352      	12.491203      	11.7220125     	11.574471      	11.177889      	10.926693      	11.219369      	11.354947      	11.720788      	11.410163      	11.897907      	
14.264785      	14.700888      	15.194764      	15.260201      	15.401661      	14.861753      	14.658639      	14.503729      	14.946091      	14.672066      	14.650758      	14.50833       	14.702751      	14.409013      	14.973223      	14.147922      	14.501952      	14.653566      	14.116426      	14.25896       	14.243008      	14.896939      	15.666309      	15.027891      	15.365038      	14.880115      	14.473859      	12.070362      	11.930028      	11.563769      	11.181892      	11.1957655     	11.265741      	11.449844      	11.230768      	11.692349      	11.480657      	11.631937      	11.982481      	11.556574      	11.42401       	11.476548      	11.760892      	11.635396      	11.450677      	11.866744      	11.698721      	11.55558       	11.941908      	12.179736      	11.114885      	11.412032      	11.964998      	11.407216      	11.449496      	11.347158      	11.945543      	11.672241      	11.716626      	11.569253      	11.784493      	11.429719      	11.409845      	11.1039715     	11.181903      	11.729453      	13.579402      	15.083701      	16.084337      	15.083461      	15.734791      	15.227678      	15.564645      	14.674695      	14.752904      	15.709736      	14.936702      	15.319379      	15.063047      	15.1483555     	14.818476      	15.135988      	15.261131      	15.464975      	15.043624      	14.716845      	15.275545      	14.558491      	14.942864      	14.815264      	13.195956      	11.819335      	11.560125      	11.245206      	11.101868      	11.153932      	11.223792      	11.664854      	11.682662      	11.541317      	
14.459758      	14.520098      	15.125672      	14.956109      	14.781319      	14.490194      	15.020342      	15.374605      	15.249426      	14.753264      	15.478939      	14.851686      	14.506563      	15.117188      	15.163034      	14.695244      	15.419901      	14.743762      	15.109953      	14.776032      	14.860949      	14.87206       	14.658025      	14.805009      	14.936107      	14.888622      	13.9644165     	12.19137       	11.703566      	11.242123      	11.504121      	11.355488      	11.516352      	11.813632      	11.40239       	11.730149      	11.960359      	11.641857      	11.744175      	11.336455      	11.592003      	11.366279      	11.40973       	11.889583      	11.83545       	11.301235      	11.8884        	11.631102      	11.6959        	11.772713      	11.805003      	11.903694      	11.742043      	11.407595      	11.720988      	11.6137705     	11.456448      	11.566733      	11.480309      	11.521121      	11.527731      	11.586714      	11.110362      	10.951365      	10.905594      	11.208019      	12.198869      	15.04553       	15.718995      	15.024819      	14.704756      	14.872407      	14.912704      	15.0268545     	14.965727      	14.792553      	15.325183      	14.854823      	14.718116      	15.006899      	14.759428      	14.894926      	14.947062      	14.760453      	15.152988      	14.697665      	14.964025      	15.2753105     	14.424012      	14.717199      	14.489499      	12.023808      	11.819503      	11.155084      	10.955641      	11.113974      	11.358219      	11.810814      	11.402755      	11.311565      	
14.408416      	14.661848      	15.226245      	14.625995      	14.386192      	14.798148      	15.282466      	15.254439      	14.971292      	15.183133      	14.994054      	15.383203      	14.677485      	15.051168      	15.140871      	15.094902      	15.148188      	14.788844      	14.958038      	14.868907      	15.065963      	15.815625      	14.753854      	15.738859      	14.653728      	14.952627      	14.4654875     	12.109215      	11.977373      	11.615365      	11.046441      	11.321223      	11.413882      	11.624864      	11.557221      	11.837337      	11.814657      	11.993182      	11.590029      	11.786351      	11.5184555     	11.600163      	11.711328      	11.392504      	11.627363      	11.593134      	11.571719      	11.628357      	11.573767      	11.670339      	11.380222      	11.361443      	11.48933       	11.330408      	11.475572      	11.623287      	11.640762      	11.676569      	11.447548      	11.574245      	11.327328      	11.684364      	11.235505      	11.6037445     	10.816122      	11.114702      	12.461456      	13.91968       	16.233397      	15.246785      	15.342418      	14.990875      	15.027552      	15.021846      	14.854475      	14.838264      	15.367247      	15.729362      	15.134211      	15.111705      	14.787825      	14.924706      	15.560949      	14.661765      	14.746831      	15.02617       	14.992934      	14.852187      	14.997018      	14.77319       	14.537251      	12.399753      	11.632158      	11.466002      	11.226035      	11.304979      	11.678142      	12.114669      	11.396612      	11.41634       	
14.144136      	14.313231      	14.555323      	14.880145      	14.441993      	14.534025      	14.850474      	14.355366      	14.36207       	14.568934      	14.618878      	14.707844      	14.773724      	14.33733       	14.966044      	14.61838       	14.649995      	14.365973      	14.457764      	14.727297      	14.493282      	14.612868      	15.77095       	14.628034      	14.797834      	14.925273      	14.979726      	13.508703      	11.745786      	11.406943      	11.139956      	11.030706      	11.188059      	11.371997      	11.404203      	11.408159      	11.744604      	11.447062      	11.739613      	11.762626      	11.887704      	11.696831      	11.916193      	11.479145      	11.804525      	11.39652       	11.456163      	11.433692      	11.9786005     	11.40609       	11.810877      	11.40317       	11.629975      	12.075497      	11.302495      	11.569427      	11.586095      	11.747706      	11.404059      	11.826456      	11.455029      	11.347974      	11.884086      	11.0959        	10.924438      	10.880395      	11.795405      	13.636165      	14.845321      	15.587554      	15.287998      	15.061488      	15.655032      	14.951722      	14.617842      	14.855463      	14.875995      	14.512865      	15.027322      	14.809888      	15.018235      	14.773227      	14.513419      	14.365806      	14.7305355     	14.863654      	14.819973      	14.823695      	14.889063      	14.87231       	14.25898       	12.801614      	11.73472       	11.5640955     	10.977688      	11.077788      	11.189489      	11.505231      	11.9465275     	12.3204        	
14.019258      	14.402953      	15.312122      	15.469762      	14.56945       	14.953803      	14.731215      	14.814424      	14.933818      	14.637724      	15.077533      	15.293444      	14.976209      	14.898664      	14.761083      	15.138595      	14.954306      	14.791423      	14.562157      	15.025271      	14.675225      	14.869119      	15.411805      	14.758771      	14.470335      	15.211207      	14.856948      	14.217771      	12.292219      	11.850919      	11.592866      	11.257737      	11.354931      	11.418647      	11.673868      	12.40358       	11.939543      	11.692689      	11.533719      	11.498386      	11.644756      	11.838774      	11.317374      	11.841383      	11.419471      	11.503063      	11.520487      	11.871753      	11.235464      	11.5764065     	11.848528      	11.582549      	11.624177      	11.234699      	11.89489       	11.67803       	11.583797      	11.671533      	11.232405      	11.796267      	11.981506      	11.407429      	11.475687      	11.303307      	11.790744      	11.958201      	12.24617       	13.825744      	14.524555      	16.23448       	15.402108      	15.432518      	15.342345      	14.991785      	15.371437      	14.831475      	14.825932      	15.332875      	14.884106      	15.384121      	15.3858385     	14.715817      	14.958344      	14.7475815     	15.054851      	15.135806      	14.697659      	14.901014      	14.872734      	14.861635      	14.87226       	12.889065      	11.720221      	11.5316305     	11.392166      	11.017754      	11.35048       	11.310329      	11.538301      	11.664354      	
11.050232      	11.265877      	12.147939      	13.22272       	15.265195      	15.851054      	15.365127      	14.950701      	14.932536      	15.149249      	15.094639      	15.258114      	14.788881      	14.535572      	15.075327      	14.797566      	14.768015      	14.880856      	14.680035      	14.574437      	15.054597      	15.669336      	15.041425      	15.247142      	15.810461      	15.605032      	15.594491      	14.701845      	12.247413      	11.990199      	11.534179      	11.134778      	11.301177      	11.407679      	11.736175      	11.686027      	11.947005      	11.852173      	11.891506      	11.671197      	11.339929      	11.751102      	11.999353      	12.377172      	11.698705      	11.594202      	11.679808      	11.901385      	11.720984      	11.780683      	11.812784      	11.3165        	11.4703865     	11.6393        	11.469102      	11.784959      	11.572052      	11.563441      	11.705494      	11.697072      	11.453151      	11.462183      	10.960522      	11.412817      	11.056647      	11.227731      	11.684109      	13.144775      	14.974628      	15.350406      	14.560339      	15.17562       	15.198366      	15.053088      	15.066681      	15.6936245     	15.121319      	15.077701      	15.3428545     	15.129308      	15.361105      	14.619043      	15.065873      	14.977906      	14.9976        	15.126049      	15.982744      	14.784581      	14.576436      	15.028099      	14.905136      	13.793811      	12.165079      	11.716052      	11.458234      	11.175521      	11.399362      	11.553823      	12.204414      	11.431777      	
10.902443      	10.764994      	11.538816      	12.498072      	13.9710865     	15.919421      	14.895858      	15.383901      	14.812397      	14.635581      	14.894392      	14.5669985     	14.586558      	14.786222      	15.157755      	14.938727      	14.829813      	14.987281      	15.285911      	14.900315      	14.784837      	15.0192995     	15.221424      	14.767503      	14.898701      	14.91839       	15.019638      	14.79552       	13.189201      	11.915871      	11.548381      	11.287813      	11.322045      	11.388025      	11.40824       	11.821198      	11.589315      	11.87733       	11.675918      	11.305318      	11.6675825     	11.531289      	11.343891      	11.464334      	11.327496      	11.076845      	11.406875      	11.47941       	11.864143      	11.35951       	11.516793      	11.414122      	11.742702      	11.454293      	11.662678      	11.781899      	11.492026      	11.780383      	11.527382      	11.724612      	11.601225      	11.181133      	11.474962      	11.493111      	11.211739      	11.159939      	11.73632       	11.955653      	14.518544      	16.166727      	14.856455      	14.692158      	14.986134      	14.830109      	14.535211      	14.625389      	14.94931       	14.929316      	15.049242      	14.672451      	14.790426      	14.772316      	15.038552      	14.938359      	14.690146      	14.807898      	15.168908      	15.003296      	14.646726      	14.837944      	14.74863       	14.410066      	12.326431      	11.850301      	11.404222      	11.134879      	11.314488      	11.191946      	11.963945      	11.487265      	
10.617545      	10.687732      	11.027585      	11.602103      	13.302295      	15.920084      	14.770859      	15.165595      	14.987966      	15.631974      	15.103778      	14.766448      	15.030389      	14.500218      	14.772256      	15.09303       	15.634799      	15.064772      	14.740356      	15.150547      	15.058071      	14.999608      	15.2462435     	14.829558      	14.820028      	14.710373      	15.048738      	15.988788      	13.073218      	12.141912      	11.883151      	11.680072      	11.096511      	11.268138      	11.54958       	11.895988      	11.499583      	11.6380825     	12.050892      	11.690613      	11.468164      	11.89649       	11.553218      	11.559347      	11.398913      	11.492613      	11.524822      	11.537928      	11.263142      	11.515064      	11.563356      	11.5912285     	11.2741165     	11.518077      	11.354756      	11.634908      	11.36708       	11.405057      	11.566235      	11.4309845     	11.433986      	11.470336      	11.312019      	11.382568      	11.584638      	11.416622      	11.252168      	11.682671      	13.821331      	15.346044      	14.1982155     	15.057702      	14.612347      	15.0531        	14.676538      	14.474324      	14.863015      	15.391223      	14.583229      	14.822991      	14.583758      	14.771185      	14.608222      	14.725689      	14.353195      	14.741463      	14.740127      	14.697713      	14.667889      	14.755895      	14.487203      	14.60234       	12.199834      	11.642101      	11.442375      	11.2746935     	11.337103      	11.532611      	11.575688      	11.594573      	
10.774215      	10.8175        	11.209343      	12.120365      	13.093016      	14.494044      	15.547605      	14.813542      	14.90095       	14.888833      	14.8130665     	14.858291      	15.274481      	14.951996      	15.137391      	15.607673      	15.007394      	15.180825      	15.013744      	15.725658      	15.148789      	15.315046      	15.806923      	15.362035      	15.407945      	15.067545      	15.234369      	15.303499      	14.787904      	12.224591      	11.966297      	11.280516      	11.330106      	11.143919      	11.465039      	11.941768      	11.347565      	11.893101      	12.053298      	11.617542      	11.419032      	11.435768      	11.683366      	11.38391       	11.648808      	11.529551      	11.53383       	11.555101      	11.747028      	11.630489      	11.228577      	11.491936      	11.747158      	11.42372       	11.316205      	11.545081      	11.542181      	11.410417      	11.435453      	11.377152      	11.738269      	11.271446      	11.406746      	11.507113      	11.151754      	10.955017      	11.161744      	11.176421      	13.073833      	15.289809      	14.7207775     	14.964106      	15.081764      	14.703188      	14.849388      	14.598749      	14.938766      	15.018599      	14.7443        	14.9742985     	15.051238      	15.240147      	15.170276      	14.934756      	14.759339      	14.957034      	14.866234      	14.480757      	14.768594      	14.644432      	14.958261      	14.8153715     	13.2283325     	11.938214      	11.563204      	10.99715       	11.066541      	11.184162      	11.634806      	11.480089      	
10.839324      	10.69551       	11.12737       	11.81917       	12.846847      	14.115169      	15.368503      	14.467334      	14.98359       	15.065061      	14.977871      	15.464768      	14.383434      	14.56694       	14.666677      	16.006645      	15.443627      	15.306516      	14.99325       	15.1112995     	15.005606      	15.527912      	15.200596      	15.695679      	15.205684      	14.620509      	14.628063      	14.963094      	14.921821      	12.757556      	11.936265      	11.671446      	11.25446       	11.132207      	11.214808      	11.631893      	11.489226      	11.571598      	11.92113       	11.4009495     	11.20691       	11.598011      	11.5199795     	11.567216      	11.328477      	11.416864      	11.662542      	11.181842      	11.484974      	11.3473835     	11.4276905     	11.3540945     	11.661501      	11.751713      	11.502053      	11.46904       	11.529055      	11.630779      	11.45188       	11.527095      	11.552508      	11.449101      	11.687274      	11.335667      	11.536764      	10.96921       	10.546282      	10.994493      	12.035274      	14.4123535     	15.140932      	14.339407      	15.581888      	14.814233      	14.569619      	15.040123      	14.640217      	14.932802      	14.80772       	14.825738      	15.0377245     	15.094653      	14.728725      	14.87267       	14.699676      	14.803247      	14.859471      	14.910647      	14.610477      	14.631527      	14.530772      	14.610656      	14.017941      	12.099488      	11.751321      	11.519109      	11.257314      	11.260684      	11.438597      	11.746189      	
10.921788      	10.9811125     	11.082426      	11.670472      	12.845763      	14.297608      	15.745354      	14.967608      	14.705792      	14.845384      	16.1729        	16.077763      	15.550929      	15.37363       	15.175921      	15.687637      	14.800189      	14.981813      	15.135399      	15.413075      	15.182844      	15.095159      	15.410866      	15.464488      	14.864522      	15.114116      	14.714367      	14.805678      	15.16084       	13.678292      	12.139204      	11.967071      	11.637285      	11.223972      	11.574277      	11.614437      	11.728464      	11.993869      	11.596633      	11.737788      	11.360593      	11.706084      	11.793785      	11.481953      	11.939295      	10.998219      	11.316094      	11.643446      	11.247199      	11.379302      	11.770919      	11.738138      	11.55815       	11.202973      	11.563245      	12.29376       	11.300173      	11.3275385     	11.600995      	11.906828      	11.420865      	11.957541      	11.655064      	12.062578      	11.294909      	11.012003      	11.003779      	11.125603      	12.815336      	13.606846      	16.076468      	14.741695      	14.850873      	15.0976        	14.571361      	14.801513      	15.011428      	14.79171       	15.088037      	15.427302      	14.921226      	15.0323925     	14.751681      	14.833698      	14.353609      	14.971769      	15.0276165     	15.01277       	14.549337      	14.692656      	14.771434      	15.307386      	14.278735      	12.322409      	12.014132      	11.517279      	11.371705      	11.597371      	11.465147      	11.594511      	
11.050779      	10.778969      	11.197577      	11.774376      	11.774637      	13.368595      	15.671593      	15.140689      	14.963211      	14.969116      	15.171178      	16.52092       	15.430325      	15.430666      	15.005689      	15.0228405     	15.149659      	15.045826      	14.858588      	15.11634       	16.179083      	15.823416      	15.648733      	14.81476       	15.049309      	14.649611      	15.182587      	14.939062      	14.992836      	14.79301       	12.555189      	11.973416      	11.306201      	11.278018      	11.552726      	11.673327      	11.677979      	11.597698      	11.643763      	12.018915      	11.313139      	11.586141      	11.767383      	11.547895      	11.237008      	11.525216      	11.479942      	11.543376      	11.748979      	11.590647      	11.309454      	11.220417      	11.389416      	11.480212      	11.566565      	11.2941265     	11.507128      	11.757564      	11.458349      	11.806238      	11.447375      	11.539516      	11.528186      	11.570185      	11.314826      	11.050558      	10.788448      	11.25086       	11.976617      	13.5441        	16.08953       	15.332446      	15.045201      	15.141828      	15.026088      	15.095423      	14.745147      	15.071621      	14.948056      	14.935687      	14.702371      	15.26351       	14.748592      	15.0361595     	14.92193       	14.683291      	15.289209      	15.272405      	15.05622       	15.079975      	14.683156      	14.831025      	14.691202      	12.237113      	11.823696      	11.489232      	11.116133      	10.874846      	11.34224       	11.507645      	
11.226694      	11.152769      	11.376093      	11.207516      	11.688929      	12.931156      	14.826013      	15.899428      	15.071831      	15.11918       	15.233898      	15.139146      	15.655036      	14.793299      	15.158784      	15.131961      	14.944885      	15.103634      	14.983814      	14.858909      	15.626018      	14.480906      	15.024005      	15.020813      	15.066553      	14.497081      	14.647297      	14.926207      	14.841387      	14.291768      	12.083434      	11.842231      	11.2102165     	10.997039      	11.015043      	11.393803      	11.90063       	11.177701      	11.583934      	11.722266      	11.4767885     	11.981494      	11.944283      	11.482932      	11.97395       	11.333068      	11.879984      	11.453651      	11.320519      	11.524846      	11.512502      	11.403305      	11.482597      	11.42448       	11.52612       	11.509142      	11.365765      	11.555562      	11.61141       	11.42367       	11.654792      	11.388822      	11.580785      	11.454138      	11.156682      	11.445323      	11.46141       	10.994573      	12.005751      	13.491556      	15.490875      	14.922188      	14.955327      	15.217614      	14.843775      	15.139148      	14.858556      	15.0716915     	15.013984      	14.77941       	14.834181      	14.9519005     	15.768906      	14.810056      	14.802973      	15.138774      	14.907015      	14.871511      	15.169357      	15.081462      	14.93242       	14.934295      	15.012069      	13.524706      	11.736621      	11.53763       	11.272176      	11.0557575     	11.223389      	11.558673      	
11.06469       	10.995628      	11.019893      	11.380288      	11.997121      	12.853322      	14.256019      	16.011131      	14.879516      	14.510707      	14.672692      	14.862833      	14.908873      	14.859006      	15.106175      	15.290422      	14.839265      	14.637515      	15.60651       	15.245913      	14.949287      	15.017249      	14.584671      	15.448728      	16.081247      	15.371793      	15.057983      	14.815512      	14.796755      	14.666314      	12.536425      	11.614008      	11.431406      	11.020795      	11.174935      	11.2583065     	11.658829      	11.327687      	12.221401      	11.518837      	11.3296175     	11.654229      	11.0744        	11.411369      	11.494595      	11.39646       	11.7395        	11.770896      	12.059294      	12.060619      	11.474649      	11.462422      	11.740215      	11.470636      	11.694887      	11.547949      	12.24545       	11.785514      	11.527331      	11.952262      	11.363804      	11.509571      	11.480694      	11.55859       	11.270235      	11.811348      	11.038449      	10.89773       	11.378211      	12.648805      	14.527968      	15.680792      	14.677019      	14.616782      	14.875503      	14.9767885     	14.824533      	14.800687      	15.176223      	14.941164      	15.196389      	14.828508      	14.868964      	15.099983      	15.223268      	14.982215      	15.104497      	14.77608       	14.608268      	14.975504      	14.580141      	14.962713      	14.345034      	13.94035       	12.062042      	11.825936      	11.932771      	11.897171      	11.669323      	11.586691      	
11.244941      	11.061811      	10.869992      	11.109749      	11.857462      	12.201168      	14.272752      	15.623021      	14.6277895     	15.100896      	15.2818365     	15.0962515     	15.143795      	15.354683      	14.864623      	14.995112      	14.903466      	14.797835      	14.876185      	15.661229      	15.273041      	15.431462      	14.631857      	14.756078      	15.516358      	15.02754       	14.832101      	14.759236      	14.78995       	14.971631      	12.853523      	11.914273      	11.73309       	11.435655      	11.246831      	11.237987      	11.670078      	12.059193      	11.500463      	12.27421       	11.59915       	12.041795      	11.431731      	11.590011      	11.816647      	11.354763      	11.49542       	11.566518      	11.256022      	11.321641      	11.503717      	11.497572      	11.492561      	11.625796      	11.782694      	11.434553      	11.190865      	11.636921      	11.455721      	11.358659      	11.604233      	11.869359      	11.286703      	11.400347      	11.217719      	11.384922      	11.2642975     	10.663843      	11.182569      	11.692976      	14.594111      	16.00027       	14.739732      	14.547905      	14.849181      	14.917165      	14.383356      	14.7570915     	15.071974      	14.734217      	15.1794195     	14.589226      	14.874727      	14.806179      	14.674887      	14.870267      	15.141343      	14.706373      	14.865459      	14.498002      	14.510269      	14.655141      	14.66244       	14.735805      	13.304098      	12.617808      	12.67162       	12.339124      	12.14764       	11.752193      	
11.142126      	11.188266      	11.517795      	11.737287      	11.572905      	12.395748      	13.440544      	15.732314      	14.945043      	14.9497385     	14.746832      	14.994869      	15.317347      	14.578291      	14.695602      	15.256214      	14.778203      	15.455147      	15.996628      	15.227997      	14.87691       	15.341973      	15.418672      	15.188476      	14.74295       	14.737296      	14.710643      	15.009479      	14.770486      	15.361841      	14.212227      	12.124197      	11.642091      	11.210471      	11.378425      	11.167202      	11.184236      	11.71782       	11.817543      	11.004853      	11.515366      	12.224726      	11.743518      	11.726143      	11.5146        	11.513527      	11.515388      	11.787997      	11.292093      	11.466974      	11.485503      	11.770023      	11.006835      	11.411527      	11.274939      	11.497851      	11.224008      	11.407379      	11.329742      	11.467272      	11.651928      	11.460729      	11.2015        	11.412202      	12.005227      	11.221668      	10.914339      	10.983889      	11.430903      	11.300552      	13.349885      	15.719182      	14.012301      	14.440387      	14.926194      	14.716485      	14.709773      	14.494477      	14.66124       	14.899685      	14.621627      	14.592352      	15.089807      	14.971496      	14.900995      	14.552846      	14.8115835     	14.945149      	14.62654       	15.839825      	14.515277      	14.444625      	14.819178      	14.890743      	14.612011      	14.809779      	13.506638      	12.67071       	12.971989      	12.302305      	
11.281755      	11.171292      	11.216642      	11.237377      	11.51584       	12.067771      	12.996409      	15.003523      	15.571578      	14.946974      	14.7950735     	14.30733       	14.891079      	15.197465      	15.003872      	15.041652      	15.125319      	15.207246      	14.932476      	14.987584      	14.670628      	15.721002      	16.147005      	15.706188      	14.925481      	15.269903      	14.878979      	14.490716      	14.862089      	15.045887      	14.7032585     	12.469563      	11.772582      	11.436049      	11.211846      	11.287474      	11.376381      	11.491429      	11.700648      	11.57766       	11.558048      	11.608679      	11.4742565     	11.461168      	11.519265      	11.570995      	11.823632      	11.304217      	11.3036375     	11.613897      	11.313568      	11.539288      	11.51652       	11.398989      	11.635479      	11.337505      	11.729957      	11.50285       	11.245755      	11.522817      	11.559538      	11.432064      	11.349867      	11.670053      	11.511489      	11.50131       	11.155587      	11.086178      	11.638511      	11.120881      	12.736921      	15.340682      	15.4849415     	14.446205      	14.815955      	14.857773      	14.743561      	14.785866      	14.782435      	15.225357      	14.535163      	14.7826185     	15.798089      	14.27745       	14.673056      	14.875566      	14.576344      	14.688831      	14.877994      	14.701966      	14.740591      	14.850051      	14.929811      	14.82555       	14.684624      	15.226328      	13.675579      	13.509999      	13.870496      	13.700981      	
11.491203      	11.29941       	11.269041      	11.312313      	11.06042       	11.453532      	11.974244      	14.385885      	15.581592      	14.504295      	14.66772       	14.711659      	15.074665      	15.040177      	14.969665      	15.141889      	15.144841      	14.932099      	15.215005      	15.125766      	15.341113      	14.55742       	15.194217      	15.116847      	14.891913      	14.720773      	15.394175      	14.336445      	14.811684      	14.824313      	14.712807      	12.886316      	11.923862      	11.537223      	11.281476      	11.192901      	11.289411      	11.5255        	11.536332      	11.396238      	11.764331      	11.676819      	11.12756       	11.647648      	11.79512       	11.247343      	11.078095      	11.33406       	11.849611      	11.760687      	11.121717      	11.4487        	11.47538       	11.369472      	11.622815      	11.253097      	11.564496      	11.337806      	11.71094       	11.4078665     	11.834644      	11.395675      	11.510935      	11.674085      	11.564326      	11.14639       	11.360455      	11.146017      	10.997805      	11.247003      	12.870829      	14.168293      	16.177296      	14.709551      	14.972413      	14.464243      	14.620815      	14.75444       	14.814934      	14.718017      	15.2445        	14.7377825     	14.712994      	15.425954      	14.412815      	14.821274      	14.92328       	14.607288      	14.899611      	14.71773       	14.671088      	15.364963      	14.255674      	14.751624      	14.7407055     	14.983175      	14.80934       	14.880956      	15.016339      	14.509984      	
11.355061      	11.340785      	11.338706      	11.485641      	10.806317      	11.210454      	11.682968      	13.807054      	15.910732      	14.935025      	15.022288      	15.089644      	15.217756      	14.823367      	14.988389      	15.2430105     	14.809379      	14.884251      	14.698186      	15.087698      	14.979791      	15.012084      	15.00007       	14.628525      	14.739274      	15.34716       	14.614689      	14.726412      	15.040063      	14.789602      	15.067606      	13.579679      	12.136475      	11.739455      	11.445425      	11.108391      	11.344454      	11.364127      	11.329908      	11.6633        	11.474196      	11.727308      	11.73831       	11.165895      	11.352151      	11.32513       	11.284781      	11.325208      	11.466005      	11.861092      	12.141449      	11.52042       	11.624306      	11.526238      	11.656796      	11.383844      	11.629545      	11.676597      	11.846826      	11.387955      	11.697335      	11.741472      	11.3070965     	11.42341       	11.502372      	11.508794      	11.380533      	11.313101      	11.0156145     	11.260616      	12.1266365     	13.488199      	15.121701      	15.438538      	14.6985445     	14.607321      	14.611127      	14.487916      	14.679702      	14.620719      	14.7857485     	14.989295      	14.614171      	14.758434      	14.414198      	15.009542      	14.343968      	14.747155      	14.753261      	14.584287      	14.633406      	14.641745      	15.193709      	14.574767      	14.661517      	14.959082      	14.865105      	14.760913      	14.403773      	14.186347      	
11.363867      	11.277008      	11.313772      	11.265632      	11.5265045     	11.52675       	11.921391      	12.729597      	15.749708      	15.056245      	14.911368      	14.909952      	15.220565      	14.905298      	15.19203       	14.973781      	14.605581      	14.965023      	14.55744       	14.657242      	14.586744      	14.666716      	14.985502      	14.925924      	14.739199      	14.993705      	14.776882      	14.813304      	15.006617      	14.520746      	14.343763      	14.54044       	11.976318      	11.647657      	10.961841      	11.022241      	10.949736      	11.668127      	11.887763      	11.620411      	11.351434      	11.538355      	11.431297      	12.25914       	11.557569      	11.391053      	11.5643215     	11.314087      	11.459784      	11.280052      	11.494224      	11.532155      	11.508674      	11.451141      	11.559857      	11.650943      	11.404698      	11.455508      	11.911648      	11.675406      	11.483995      	11.541723      	11.535344      	11.824034      	11.677208      	11.164791      	11.37981       	11.205596      	11.379247      	10.67062       	11.408544      	13.140819      	14.559802      	15.762948      	14.779017      	14.789644      	14.532784      	14.807198      	14.950204      	14.731754      	14.810225      	14.6445675     	15.155331      	14.670221      	14.755529      	14.906758      	14.980383      	14.87639       	14.887151      	14.933661      	14.8308525     	14.661221      	14.744809      	14.827231      	14.716921      	14.831756      	14.887408      	14.4641285     	14.894726      	14.609712      	
11.178106      	11.228705      	11.591067      	11.712725      	11.23165       	11.328208      	11.717847      	12.465841      	14.2286825     	15.808713      	14.491726      	14.398816      	14.940843      	15.110013      	14.816643      	15.086772      	14.811807      	14.820968      	15.208002      	14.992386      	14.775539      	14.948929      	15.326928      	15.256309      	14.615793      	14.814758      	14.901934      	14.837796      	14.547632      	14.477463      	14.8445425     	13.816715      	11.329598      	11.275876      	11.2003        	10.751101      	11.257492      	11.389205      	11.283693      	11.390074      	11.409064      	11.203429      	11.821641      	11.351005      	11.090673      	11.398317      	11.347823      	11.443902      	11.426122      	11.4224        	11.477385      	11.136563      	11.582754      	11.699849      	11.239283      	11.767218      	11.443409      	11.373715      	11.373132      	11.858071      	11.613263      	11.364592      	11.604         	11.585912      	11.534169      	11.105366      	11.193633      	11.65401       	10.869777      	11.14492       	10.6040945     	12.326074      	14.14568       	16.272291      	15.244112      	14.925822      	14.768243      	15.062306      	14.980979      	14.32275       	14.791225      	15.062776      	15.181067      	15.083912      	14.807427      	14.960791      	14.975119      	15.151292      	14.828507      	15.088228      	14.941728      	14.791759      	14.875954      	14.807         	14.474781      	15.265495      	15.170217      	15.07127       	14.723038      	15.206809      	
11.117251      	11.106838      	11.488228      	11.671339      	11.0934        	11.13788       	11.456766      	12.726219      	13.508455      	15.081621      	14.96067       	15.131536      	14.842101      	14.876198      	14.89995       	14.721284      	14.420617      	15.00934       	14.958632      	15.048375      	14.995824      	14.761293      	14.864837      	14.778578      	14.708762      	14.906524      	14.929366      	14.996383      	14.967854      	14.707         	15.085648      	14.126942      	12.000867      	11.733342      	11.487393      	11.091498      	11.372469      	11.545761      	11.609599      	11.7780285     	11.741909      	11.495091      	11.687631      	11.639388      	12.006837      	11.397441      	11.451709      	11.390811      	11.460259      	11.744757      	11.1810875     	11.522525      	11.527906      	11.469779      	11.714111      	11.670946      	11.356746      	11.728278      	11.363371      	11.802         	11.250298      	11.502532      	11.653763      	11.720517      	11.227599      	11.5087805     	11.822207      	11.390524      	11.095037      	11.450305      	11.221369      	11.981845      	13.036994      	16.497032      	15.523592      	15.157303      	15.181812      	15.062326      	15.056686      	15.273733      	14.852323      	15.176485      	15.618275      	14.51115       	14.990599      	15.156344      	15.095956      	14.826784      	15.072315      	14.840856      	14.843835      	15.374634      	14.835578      	15.232567      	14.492796      	14.962597      	15.479625      	16.150585      	15.623519      	15.222345      	
10.982916      	11.23678       	11.450345      	11.173658      	11.185975      	10.871953      	11.383772      	11.710226      	13.787727      	15.254936      	15.178424      	15.150205      	14.620705      	14.726871      	14.917858      	15.107087      	15.131238      	14.969369      	14.80937       	15.029963      	14.4395895     	14.802106      	15.086446      	14.595596      	14.758272      	14.749579      	14.65688       	14.430047      	14.815924      	14.245983      	14.82898       	14.478584      	12.813521      	11.974892      	12.005937      	10.980748      	11.141227      	11.489797      	11.608087      	11.509435      	11.45362       	11.399047      	11.391915      	11.357637      	11.294332      	11.58579       	11.570338      	11.494603      	11.516679      	11.543816      	11.627348      	11.2245035     	11.192452      	11.4965925     	11.773796      	11.447683      	11.548885      	11.326505      	11.293266      	11.160144      	11.733598      	11.319764      	12.028889      	12.386671      	11.92807       	11.991855      	11.736796      	12.407331      	12.157065      	12.439698      	12.477933      	12.669098      	13.41346       	16.56746       	15.570671      	15.652679      	15.490088      	15.162237      	16.041721      	14.991126      	15.6917305     	15.089071      	15.383301      	15.147038      	15.106591      	15.190809      	15.277054      	14.7704315     	15.008286      	15.410845      	15.173688      	15.116592      	14.714145      	15.405935      	15.200942      	15.234495      	14.879136      	15.234589      	15.341619      	15.030188      	
11.11956       	11.1325        	11.506166      	11.481082      	11.314893      	11.193007      	11.63569       	11.844652      	12.628462      	15.351151      	15.323925      	15.232226      	15.324114      	14.845326      	15.423811      	15.092587      	14.968601      	15.117722      	14.923205      	14.940887      	14.842628      	15.317084      	15.095136      	14.9731455     	14.824808      	14.909281      	14.997661      	14.506325      	14.619965      	14.923679      	14.661172      	14.883132      	13.705127      	11.626693      	11.49077       	11.24884       	11.069954      	10.985485      	11.460019      	11.767354      	11.259137      	11.38176       	11.792689      	11.994764      	11.552564      	11.541345      	11.434889      	11.646751      	11.636927      	11.434529      	11.554515      	11.46853       	11.421266      	11.422238      	11.495354      	11.663547      	11.322603      	11.34226       	11.790444      	11.532073      	11.953482      	11.686422      	12.219794      	12.490628      	12.685044      	12.490361      	12.191909      	12.72052       	13.456216      	13.054087      	13.099951      	14.003454      	15.132414      	16.231905      	15.523627      	15.368011      	15.075124      	15.027967      	15.084917      	14.8614645     	14.797042      	15.162206      	14.595315      	15.042897      	14.953554      	14.913331      	14.6966095     	15.056045      	14.928169      	14.894664      	15.068259      	15.224577      	15.22307       	14.626955      	14.723972      	14.768303      	14.652225      	14.745253      	14.585527      	15.194135      	
11.1466875     	11.1726465     	11.314591      	11.707821      	11.281391      	11.224276      	11.221911      	11.695562      	12.386839      	13.955828      	15.409134      	14.564622      	14.830125      	14.983105      	14.771904      	14.897562      	14.85936       	14.850739      	15.036932      	14.835832      	14.694126      	15.045903      	14.965437      	14.992278      	14.778792      	14.568416      	15.135096      	14.663351      	14.809987      	14.799209      	14.521901      	14.76663       	14.120142      	12.162471      	11.888087      	11.423259      	11.033835      	11.234986      	11.469868      	11.337927      	11.580846      	11.693856      	11.67071       	11.336083      	11.5793495     	11.44758       	11.57264       	11.45721       	11.188658      	11.210186      	11.402068      	11.874518      	11.216045      	12.193455      	11.455594      	11.680297      	12.135378      	11.828449      	12.201917      	11.990751      	12.698403      	12.204077      	12.400532      	12.690083      	13.428391      	13.879452      	13.61571       	14.524909      	14.553799      	15.029236      	15.254158      	16.156265      	15.225351      	15.14331       	14.998617      	14.9921875     	14.65737       	15.317463      	14.857083      	15.079627      	14.691852      	15.035654      	14.718881      	15.914731      	14.333286      	14.662292      	14.685997      	14.759044      	14.777973      	14.731854      	14.776618      	15.002189      	15.207663      	14.775103      	14.85009       	14.80418       	15.053616      	14.624221      	15.008403      	14.737998      	
11.1263895     	11.055874      	11.29116       	11.343471      	11.5925455     	11.344308      	11.088775      	11.3227005     	12.299226      	13.660484      	15.447415      	14.99692       	14.743705      	14.947846      	14.63331       	15.222413      	14.511456      	14.786721      	15.011563      	15.124803      	14.776028      	14.628126      	14.648535      	14.794264      	15.042846      	14.532477      	14.94101       	14.827335      	14.611456      	14.768507      	14.567008      	15.094659      	14.302799      	12.565359      	11.894275      	11.729725      	11.233964      	11.213423      	11.325896      	11.526881      	11.388798      	11.708055      	11.3373        	11.659088      	11.619991      	11.311832      	11.784419      	11.415105      	11.689583      	11.429316      	12.144933      	11.705622      	11.549956      	12.203544      	11.990152      	12.3479        	12.130369      	12.388679      	12.730192      	12.63128       	13.494191      	13.378012      	13.678889      	13.806462      	14.595375      	15.948193      	16.031855      	14.370247      	14.732205      	14.398656      	14.6893835     	15.030543      	14.567343      	14.722092      	14.738034      	14.984281      	14.820219      	15.138258      	14.657291      	14.76472       	14.501319      	14.797494      	15.290678      	14.169863      	14.850923      	14.955938      	14.584648      	14.912491      	14.536453      	14.8362665     	15.02591       	14.72283       	14.844526      	14.717697      	14.779296      	14.3747        	14.81097       	14.868683      	14.77318       	14.731294      	
11.226853      	11.228932      	11.296734      	11.45429       	11.402773      	11.160426      	10.920595      	11.254366      	12.136356      	13.777569      	15.309581      	15.129776      	14.786768      	14.897873      	15.474696      	14.792597      	14.699572      	15.126718      	14.555665      	14.957445      	14.632042      	14.832236      	14.567938      	14.767981      	14.638466      	14.918169      	14.623477      	14.7441025     	14.740513      	15.220667      	14.452558      	14.822523      	15.148786      	12.71042       	11.839871      	11.803616      	11.4624195     	11.340035      	11.05076       	11.879949      	11.7754        	11.331799      	11.752699      	11.296321      	12.135249      	11.069719      	11.491994      	12.282846      	12.061599      	11.857197      	12.396534      	12.319868      	11.93601       	12.832692      	12.842055      	12.959962      	13.455518      	13.692071      	13.889311      	14.517315      	14.937509      	14.907506      	15.893225      	15.844791      	15.149156      	14.971884      	15.60735       	14.253333      	14.799977      	14.651924      	14.508679      	14.876361      	14.89661       	14.866581      	15.123502      	14.9644375     	14.438926      	15.019052      	14.707679      	15.036498      	14.983675      	14.991122      	14.985476      	15.014517      	14.908637      	14.705352      	14.910584      	14.863443      	15.037476      	14.945332      	15.020371      	14.652087      	14.952823      	15.020275      	15.022058      	14.94334       	14.874659      	14.95199       	14.825742      	14.926866      	
11.0161085     	11.15876       	11.474484      	11.326919      	11.385716      	11.364173      	10.856807      	11.142651      	11.686408      	13.4011135     	15.243387      	15.474182      	15.141472      	14.930679      	14.934521      	14.582745      	15.179658      	15.0378065     	14.929823      	14.584716      	14.925983      	15.144874      	15.013668      	14.924225      	14.648937      	14.7647505     	14.729076      	15.074974      	14.822278      	14.951718      	14.691         	14.846372      	14.781164      	14.270057      	12.276792      	11.843265      	11.2663765     	11.234057      	11.510037      	11.597479      	11.82054       	12.006476      	11.310829      	11.9399395     	11.722882      	12.010979      	11.838384      	12.044301      	12.208951      	12.247832      	12.927839      	13.028253      	12.234737      	13.394611      	14.491625      	14.217407      	14.403059      	14.995729      	15.476065      	14.87347       	14.989779      	14.581134      	14.821829      	14.554282      	14.650085      	15.035289      	14.822002      	14.699426      	14.682857      	14.754257      	14.709887      	14.6864605     	14.279313      	14.425636      	14.837441      	14.464651      	14.683984      	14.528361      	14.422149      	14.651576      	14.82222       	14.874576      	14.565317      	14.52477       	14.693842      	14.642698      	15.02716       	14.824386      	14.561297      	15.2318535     	14.86848       	14.433535      	14.493811      	14.853326      	14.769611      	14.705001      	14.547314      	14.860692      	14.570965      	14.692853      	
11.068428      	11.11658       	11.31151       	11.31084       	11.435899      	11.221455      	11.122994      	11.063104      	11.473351      	12.665074      	15.081366      	15.2279415     	14.938396      	14.686437      	14.86961       	16.119991      	15.374317      	15.251838      	15.000769      	14.742295      	14.7085        	14.864784      	15.476377      	15.021778      	15.018723      	14.663494      	14.851161      	15.210834      	14.667056      	14.567447      	14.590226      	14.831738      	14.745603      	14.610784      	12.104774      	12.268037      	12.305411      	12.33733       	12.444298      	11.878195      	12.079269      	11.480208      	11.781431      	11.757288      	12.342268      	12.063268      	12.480187      	12.829721      	12.876647      	13.704516      	14.431764      	14.361135      	15.415379      	14.874422      	15.556595      	14.281728      	14.443992      	14.525445      	14.546786      	14.244215      	14.657947      	14.450096      	14.189379      	14.860798      	14.332329      	14.538337      	14.325545      	14.5993805     	14.306549      	14.621994      	14.082378      	14.697107      	14.588439      	14.982151      	15.764007      	15.132998      	15.5073805     	14.693663      	15.379312      	14.627797      	14.964775      	14.611175      	14.853394      	14.894915      	14.617325      	14.918518      	14.866077      	14.515516      	14.714993      	14.911843      	14.746138      	14.445285      	14.675926      	14.924855      	15.008261      	15.145306      	14.610767      	14.895738      	15.045374      	15.009496      	
11.305327      	11.256435      	11.346671      	11.395354      	11.322179      	11.052995      	11.267389      	11.171638      	11.653409      	12.237048      	14.412809      	15.808754      	14.664546      	14.428129      	15.095029      	14.764933      	14.506582      	14.720692      	14.886847      	14.829735      	14.387763      	14.827573      	14.804213      	14.848009      	14.9787655     	14.822895      	14.748258      	14.499504      	14.553281      	14.622409      	14.890894      	14.738324      	14.513305      	15.135539      	14.619269      	14.2953615     	12.952263      	12.286812      	12.638475      	12.622806      	12.355363      	12.663493      	12.068946      	13.835521      	13.285791      	13.941482      	13.767878      	14.045895      	14.436841      	15.742521      	14.899443      	14.560574      	14.850824      	14.480978      	14.275337      	15.010834      	14.076804      	14.191976      	14.566848      	14.255226      	14.270572      	14.689982      	14.168452      	14.475188      	14.675636      	14.205132      	14.482143      	14.133711      	14.688852      	14.56057       	14.578381      	14.614824      	14.605443      	14.980876      	14.980218      	14.19379       	14.347196      	15.547611      	14.7582855     	14.878628      	15.016987      	14.900992      	14.343663      	15.176926      	14.812444      	14.650352      	14.784289      	14.58605       	14.888339      	15.257042      	14.709396      	14.746115      	14.972459      	14.726697      	14.709612      	15.168516      	14.351768      	15.229656      	14.953298      	14.816488      	
11.249872      	11.384678      	11.819628      	11.701378      	11.234098      	11.384789      	11.442715      	10.863481      	11.596112      	12.107459      	13.53663       	15.987568      	14.9422455     	14.743835      	15.187642      	14.506346      	14.188294      	14.65632       	15.230851      	14.727909      	14.500037      	14.367047      	15.225038      	14.194107      	14.554201      	15.23203       	14.404824      	14.780914      	14.543624      	14.978138      	14.539881      	14.627015      	14.389219      	14.672986      	14.860128      	14.669463      	13.419343      	13.29856       	13.4489355     	13.755101      	13.769613      	14.194847      	14.283623      	14.721044      	14.977422      	15.787455      	15.351322      	15.038657      	14.668854      	14.760542      	14.716126      	14.901926      	14.409722      	15.5265875     	14.0515585     	14.837341      	14.655434      	14.603785      	14.752406      	14.864031      	14.757332      	14.341831      	14.645908      	14.788299      	14.624625      	14.673185      	14.639437      	14.595265      	14.666847      	14.670024      	14.768355      	15.222047      	14.314508      	14.838507      	15.153467      	14.882216      	14.543739      	14.78713       	14.927006      	14.469071      	15.10026       	14.5613365     	14.692771      	14.886282      	15.048572      	14.931634      	14.704549      	14.427512      	15.17929       	15.188529      	14.734129      	15.109597      	15.030233      	14.97699       	14.738863      	15.245622      	14.328885      	14.861424      	14.942943      	14.949039      	
11.131608      	11.303588      	11.252246      	11.098117      	11.165202      	11.339441      	10.980565      	11.222176      	11.051389      	11.622267      	12.868108      	14.611456      	15.728864      	14.414284      	14.580141      	14.939026      	14.750946      	14.717963      	14.427023      	14.744501      	15.220372      	14.406849      	14.463323      	14.553085      	14.403717      	14.410004      	15.066169      	14.746463      	14.613732      	14.562478      	14.998854      	14.683745      	14.681105      	14.6734295     	14.674671      	14.121838      	14.654125      	14.660526      	14.891069      	14.588685      	14.802927      	14.675385      	15.003748      	13.845658      	14.454901      	14.659515      	14.766066      	14.564078      	14.401749      	14.334141      	14.3941965     	14.36437       	14.516352      	14.488177      	14.548975      	14.222507      	14.646734      	14.294587      	14.341393      	14.444646      	14.739836      	14.45233       	14.714927      	14.866028      	14.416982      	14.757614      	14.736281      	14.751782      	14.569342      	14.725189      	13.899711      	14.838621      	14.863751      	14.748956      	14.817942      	14.301587      	14.21007       	14.202747      	14.987029      	14.570181      	14.187946      	14.296888      	14.458575      	14.607767      	14.297197      	14.610409      	14.706064      	15.15485       	15.097375      	14.784944      	15.047451      	14.733238      	14.905006      	15.20586       	15.019857      	14.582127      	14.492993      	15.192125      	14.690363      	14.970621      	
11.191365      	11.1046715     	11.165835      	11.131241      	11.104573      	11.1798725     	11.230466      	11.043879      	11.387473      	11.83297       	12.284691      	14.250085      	15.510216      	14.7815485     	15.03391       	14.614687      	14.767212      	14.950275      	14.520943      	14.776791      	15.141358      	14.956692      	14.949465      	15.111985      	14.860577      	14.746518      	14.902058      	15.039208      	14.666716      	14.884286      	14.663931      	14.705058      	14.970119      	14.596238      	15.35079       	15.037877      	14.580719      	14.744794      	14.991877      	14.250286      	14.582051      	14.916314      	14.718651      	14.6715145     	14.680879      	14.302931      	14.774463      	14.541879      	14.629716      	14.963895      	14.419057      	14.145705      	14.533229      	14.331356      	15.01074       	14.400258      	14.423926      	14.400044      	14.029297      	14.174737      	14.451834      	14.464533      	14.549064      	14.593178      	14.314245      	14.733055      	14.422929      	14.830568      	14.626688      	14.86973       	14.578583      	14.410878      	14.78845       	14.641125      	14.819053      	14.459387      	14.778824      	14.642465      	15.099036      	14.560982      	14.736757      	14.691281      	14.902196      	14.487719      	14.718674      	14.578705      	14.7816        	14.913339      	14.611831      	14.844416      	14.535436      	14.541714      	14.7282095     	14.738747      	14.960969      	14.69163       	14.658633      	14.514511      	15.246412      	13.953929      	
11.2877        	11.446338      	11.296496      	11.388304      	11.266548      	11.37381       	11.249283      	10.972477      	11.00826       	12.166068      	11.874134      	13.96931       	15.549345      	14.767939      	14.913044      	14.881208      	15.20459       	14.927383      	14.897568      	15.073134      	14.881188      	14.837621      	15.228927      	14.814374      	14.837729      	14.531671      	15.00238       	14.895144      	14.951838      	14.749714      	14.914466      	14.4160795     	14.724661      	14.792764      	15.125092      	14.820455      	14.966013      	15.040249      	14.965603      	14.43837       	14.631993      	14.583672      	14.468036      	14.744476      	14.711961      	14.747053      	14.775937      	14.4104595     	14.626709      	14.4646635     	14.831015      	14.440338      	14.625245      	14.860964      	14.60997       	14.395756      	14.377267      	14.720129      	15.075455      	14.478358      	14.488503      	14.753788      	14.516123      	14.759374      	14.594045      	14.6609        	14.969028      	14.799992      	14.604459      	14.633392      	14.551829      	14.539826      	14.503473      	14.349862      	14.830042      	14.6430235     	14.915036      	15.187015      	14.876364      	14.671195      	14.658478      	14.782532      	14.918896      	14.584372      	14.559756      	14.556866      	14.726169      	14.729822      	14.369298      	14.709542      	14.955332      	14.603105      	14.843626      	15.247375      	15.165429      	14.989082      	14.689406      	14.729883      	14.7105055     	14.846258      	
11.270275      	11.21647       	11.582653      	11.450225      	11.342236      	11.385624      	11.258289      	11.420274      	10.953828      	10.878978      	11.880801      	12.946376      	14.960657      	16.051886      	15.066672      	14.944664      	14.899053      	15.6073        	14.324714      	14.787039      	14.980429      	15.18884       	15.137214      	14.831248      	15.132245      	14.998765      	14.906577      	14.809803      	14.970319      	14.799665      	14.789588      	15.199502      	15.084485      	15.295502      	14.675334      	14.705314      	14.553591      	14.799062      	14.994496      	14.721657      	14.853047      	15.038202      	14.835932      	14.588369      	14.918537      	14.575493      	14.528186      	14.78368       	15.015595      	14.6276655     	14.521011      	14.280215      	14.503046      	14.609557      	14.58757       	14.436348      	14.509538      	14.633617      	14.446005      	14.560478      	14.973994      	14.714958      	14.605689      	14.2529545     	14.638404      	14.63301       	14.838956      	14.661683      	14.559554      	14.89301       	14.721454      	14.626071      	14.641439      	14.532129      	15.30423       	15.208242      	14.948053      	15.2624655     	15.105973      	14.849519      	14.727221      	14.845266      	15.181205      	14.857152      	14.825164      	14.873535      	14.906106      	14.662092      	14.738878      	14.571749      	14.671874      	14.444333      	14.394911      	14.543552      	14.690448      	14.646184      	14.682175      	15.033952      	15.078423      	15.230269      	
11.057962      	11.081255      	11.335588      	11.768334      	11.843905      	11.946121      	12.217512      	12.061519      	11.9077        	11.886076      	11.546665      	12.753072      	14.216772      	16.138643      	15.374824      	15.503391      	15.131614      	15.239007      	15.212429      	14.839466      	14.817588      	14.72512       	14.818304      	14.61755       	14.668188      	14.742793      	14.608749      	14.667828      	14.665376      	14.345974      	14.398673      	14.60408       	14.437399      	14.504792      	14.396575      	14.224234      	14.503699      	14.557001      	14.439809      	14.512733      	14.216733      	14.551179      	14.5309105     	14.3996105     	14.464181      	14.178946      	14.405111      	14.255853      	14.417631      	14.4936495     	14.488285      	14.353503      	14.553614      	14.363317      	14.4404335     	14.609947      	14.58224       	14.294778      	14.363252      	14.264352      	14.324556      	14.286868      	14.6656275     	14.62416       	14.336864      	14.515213      	14.466883      	14.513866      	14.531601      	14.43905       	14.736748      	14.44928       	14.263595      	14.267436      	14.51077       	14.514487      	14.556713      	14.540596      	14.539249      	14.324198      	14.616392      	14.810132      	14.71945       	15.232267      	14.738015      	15.425549      	15.04384       	14.806551      	14.650002      	15.964933      	15.230263      	14.965466      	15.279235      	14.620752      	14.977395      	14.992383      	15.058939      	14.778373      	15.07697       	14.947642      	
11.568481      	11.147616      	11.419283      	11.891826      	12.167339      	12.023801      	12.49822       	12.7079115     	12.1744175     	12.183965      	12.584704      	13.247241      	14.474344      	15.479687      	15.114533      	15.400522      	15.191993      	15.093436      	14.7094965     	15.041692      	14.727582      	14.735112      	14.901221      	14.870869      	14.790327      	15.1647        	14.729646      	14.64939       	15.2247095     	15.307664      	14.705088      	14.497348      	14.693747      	14.879828      	14.9573145     	14.726062      	14.73976       	14.685723      	14.652626      	14.540956      	14.543901      	14.493047      	14.713703      	14.651225      	14.663566      	14.487549      	14.548494      	14.800921      	14.29018       	14.336219      	14.5384035     	14.48274       	14.507954      	14.5909195     	14.513679      	14.690083      	15.093387      	14.585476      	14.556774      	14.417823      	14.639443      	14.886124      	14.453114      	14.732456      	14.48587       	14.567975      	14.617754      	14.342905      	14.365928      	14.649235      	14.448775      	14.412697      	14.621708      	15.135043      	14.717881      	14.769368      	14.92424       	14.440352      	14.580449      	14.4786825     	14.397434      	14.556147      	14.687642      	14.582447      	14.813185      	14.558731      	14.651414      	14.512176      	14.596723      	14.740884      	14.912354      	14.667877      	14.530888      	14.71054       	14.610708      	15.072078      	15.022311      	15.104045      	14.70585       	14.654428      	
11.699184      	11.656805      	11.774186      	11.711891      	12.281428      	12.601013      	12.571799      	12.857401      	12.975655      	13.58104       	13.859139      	13.489924      	15.55666       	15.098016      	15.020187      	14.983415      	15.073407      	15.076402      	14.914636      	15.183254      	14.863363      	14.81553       	14.902137      	14.643161      	14.9907875     	15.052921      	15.031559      	14.859342      	14.557351      	14.759137      	15.064128      	14.87334       	14.879803      	15.19981       	14.73909       	14.943699      	14.944445      	14.849206      	14.708155      	14.748288      	14.727638      	14.729968      	14.65701       	14.583019      	14.808234      	14.80022       	14.686298      	14.546808      	15.17216       	14.737427      	14.599537      	14.955806      	14.796316      	14.602885      	15.0507555     	14.705752      	14.751239      	14.889702      	14.607101      	14.837598      	14.86676       	14.470377      	14.760678      	14.947284      	14.595169      	14.852779      	14.742282      	14.715194      	14.880784      	14.801391      	14.897116      	14.880856      	14.597709      	15.071322      	14.674628      	14.822409      	15.236803      	14.741453      	14.40569       	14.620478      	14.7339        	14.614107      	14.894933      	14.716218      	14.806027      	14.702295      	14.715205      	14.499489      	14.750264      	14.654837      	14.959778      	14.628097      	15.034801      	14.789661      	15.151098      	14.972069      	14.618374      	14.999941      	14.954992      	14.784323      	
12.287523      	12.134181      	12.132464      	12.637387      	12.914628      	13.310745      	12.830082      	13.572033      	13.912138      	15.057981      	15.76428       	16.050198      	15.1757345     	15.238161      	14.8353815     	14.627722      	14.751013      	14.500033      	14.760912      	14.890156      	14.85917       	14.832782      	15.132984      	14.431452      	14.805767      	14.475581      	14.855953      	15.050499      	14.697622      	15.103557      	14.5570135     	14.890839      	15.066521      	14.735903      	14.990826      	14.552219      	14.798354      	14.448697      	15.014225      	14.950747      	14.692204      	14.47767       	14.633375      	14.85236       	14.819999      	14.650635      	15.037656      	14.54594       	14.477485      	14.675555      	14.239018      	14.598109      	14.671403      	14.621484      	15.198435      	15.004499      	14.713011      	14.748451      	14.805392      	14.732618      	14.749557      	14.595847      	14.865718      	14.904376      	14.647025      	14.555818      	14.706798      	15.009295      	14.618164      	14.321827      	14.398704      	14.909293      	14.358246      	14.519377      	14.526967      	14.970784      	14.780118      	14.476809      	15.147186      	14.509925      	14.887952      	14.992163      	14.475938      	14.497452      	14.792678      	14.970699      	14.58339       	14.808389      	14.696953      	14.6232815     	14.707532      	14.958097      	14.8950615     	15.232622      	14.30539       	14.747296      	15.247743      	14.508482      	14.743914      	14.625032      	
12.766395      	12.928522      	13.093427      	13.813478      	14.367912      	14.755904      	15.469326      	15.526185      	15.159725      	14.731313      	14.497784      	14.659611      	14.159444      	14.396343      	14.646994      	14.66894       	14.342714      	14.516966      	14.448148      	14.605883      	14.581769      	14.418173      	14.450988      	14.383987      	14.300032      	14.432451      	14.502809      	14.785564      	14.312034      	14.405687      	14.240718      	14.49131       	14.246906      	14.583657      	14.622132      	14.3108635     	14.718269      	14.533039      	14.265541      	14.28076       	14.667326      	14.416801      	14.389502      	14.469272      	14.512193      	14.604248      	14.433304      	14.4253645     	14.387638      	14.853686      	14.649229      	14.894489      	14.802978      	14.763824      	14.824253      	14.680256      	14.985012      	14.616491      	14.761449      	14.8736515     	14.6909075     	14.587359      	14.751033      	14.749093      	14.543054      	14.518816      	14.752152      	14.552594      	14.840398      	14.706212      	14.566432      	14.581073      	14.437635      	14.87489       	14.569355      	14.804388      	14.908737      	14.866645      	14.538416      	15.170246      	14.583787      	14.689255      	14.743419      	14.945795      	14.939352      	14.510257      	14.929277      	14.483831      	15.350388      	15.27453       	14.634684      	14.886937      	14.74807       	14.585443      	14.730051      	15.615917      	15.08          	15.031106      	15.077968      	15.148429      	
14.286914      	14.497401      	14.555084      	15.734731      	15.358007      	15.496472      	15.25738       	14.96347       	15.189776      	14.956224      	14.990239      	15.009067      	15.150913      	14.719042      	14.926079      	14.73976       	14.78453       	14.747092      	15.052319      	14.884602      	15.058947      	14.569311      	14.637248      	14.939768      	14.757434      	14.940773      	14.631749      	14.609229      	14.498347      	14.8185425     	14.691081      	14.603231      	14.506233      	14.445138      	14.5885515     	14.587309      	14.702708      	14.458451      	14.686245      	14.730935      	14.569792      	14.653596      	14.464362      	14.385609      	14.610617      	14.428775      	14.475542      	14.492167      	14.4526005     	14.743791      	14.455925      	14.684836      	14.598402      	14.533375      	14.76856       	14.839384      	14.423474      	14.64087       	14.577173      	14.27878       	14.458252      	14.308843      	14.738748      	14.394302      	14.265104      	14.404451      	14.391671      	14.591228      	14.595188      	14.458808      	14.544307      	14.589882      	14.465594      	15.167815      	15.699416      	15.111256      	15.033009      	15.228464      	14.876274      	14.55933       	14.690407      	14.720957      	14.49056       	14.7083025     	14.378505      	14.694223      	14.445283      	14.500093      	14.537694      	14.613754      	14.4735775     	14.683588      	14.521982      	14.481869      	14.352301      	14.363464      	14.645007      	14.214471      	14.78078       	14.805812      	
14.601706      	14.388913      	14.389646      	14.396626      	14.319333      	14.805575      	14.396346      	14.503899      	14.35143       	14.551913      	14.995724      	14.721832      	15.213737      	14.953225      	15.160164      	14.839482      	14.664683      	14.742919      	14.831692      	14.774295      	14.782006      	14.434165      	15.430636      	14.816867      	14.766411      	14.408662      	14.65451       	14.872371      	14.790565      	15.066084      	14.617343      	15.370482      	14.983612      	15.125204      	14.894871      	14.464651      	14.85232       	15.356141      	14.552736      	14.797874      	15.067504      	15.015425      	14.575795      	14.653459      	15.010212      	14.915301      	14.854436      	15.0094185     	14.781621      	14.977503      	14.779886      	14.810994      	14.979054      	14.740998      	14.779527      	14.995534      	14.88606       	15.601269      	15.0686455     	15.335434      	14.902184      	14.896833      	14.735724      	14.618384      	14.926266      	14.599872      	14.745108      	14.64662       	14.832996      	14.62123       	14.722248      	15.249021      	16.47409       	15.532483      	14.815565      	14.826583      	14.591748      	15.100055      	15.11073       	14.851629      	15.193569      	14.70681       	14.775003      	14.857466      	15.062248      	14.966047      	14.825092      	15.43345       	14.680008      	15.050457      	14.64429       	15.1416        	14.925742      	14.643992      	15.025178      	14.776508      	14.800667      	14.603634      	14.767147      	15.146956      	
14.549582      	14.488674      	14.374799      	14.492258      	14.870607      	14.606638      	14.788252      	14.911584      	14.501382      	14.883763      	14.915931      	14.676629      	14.753425      	15.1036005     	14.947201      	14.62477       	14.896175      	14.543232      	14.904574      	14.937028      	14.661564      	14.811448      	14.52587       	14.848171      	14.796371      	14.534941      	14.506861      	14.721079      	14.474538      	14.675623      	14.760851      	14.780799      	15.31361       	15.296751      	15.017537      	14.891828      	14.789594      	15.043886      	14.926425      	14.82441       	14.594322      	14.453585      	14.719101      	14.717845      	14.455714      	14.902031      	14.543706      	14.209232      	14.682405      	16.00749       	16.217398      	15.46512       	15.310039      	14.879946      	14.888872      	14.628088      	14.483644      	15.080426      	14.927078      	15.122249      	14.735144      	14.772913      	14.6567745     	14.663408      	14.49467       	14.816635      	14.68664       	14.784836      	15.038678      	14.816153      	14.79803       	14.759121      	14.564014      	14.483699      	14.838417      	14.6664505     	14.537626      	14.498688      	14.399096      	14.582772      	14.666529      	14.427263      	14.549563      	14.238635      	15.02717       	14.781772      	14.5670395     	14.467366      	14.54479       	14.808925      	14.618413      	14.167793      	14.407641      	14.450913      	14.453168      	14.823588      	14.821283      	14.985092      	14.918702      	14.828728      	
14.19783       	14.33315       	14.534815      	14.7482195     	14.571251      	14.556089      	14.989779      	14.870027      	15.001487      	14.833062      	15.102451      	15.096062      	14.810442      	15.115762      	15.027405      	15.045013      	15.340205      	14.572808      	15.10546       	14.938992      	14.767762      	15.293763      	14.936197      	14.822627      	14.7898        	14.956649      	14.696766      	14.833469      	15.112053      	14.95093       	14.78166       	14.724116      	14.799038      	14.852345      	14.538266      	14.810316      	14.664657      	14.969092      	15.119779      	15.019722      	15.11283       	14.579152      	14.577468      	14.891885      	14.971972      	14.400727      	15.048033      	14.959189      	14.28214       	14.712682      	15.892638      	14.962243      	14.830914      	15.366865      	15.240547      	14.77188       	15.072593      	14.9992895     	14.941429      	14.960562      	15.1022        	14.962921      	14.993719      	15.028638      	14.817219      	14.767696      	15.222286      	15.075273      	14.844696      	14.935567      	14.980423      	14.62737       	15.109358      	14.966529      	14.731468      	14.750609      	14.947781      	15.456529      	14.959603      	14.638835      	14.98862       	14.8065605     	14.823726      	15.0775385     	14.974595      	15.085857      	15.062398      	15.414966      	15.246044      	14.912536      	14.762782      	14.988539      	14.849091      	14.98881       	15.16627       	15.017883      	15.0028715     	14.593693      	14.441052      	14.654303      	
14.138327      	14.389599      	14.612342      	14.588054      	15.013585      	14.548136      	14.599478      	14.659956      	14.924796      	15.2646675     	14.690372      	14.733191      	14.723633      	14.81904       	14.844958      	15.125423      	14.745562      	14.820842      	15.057592      	14.875238      	15.27618       	14.963182      	14.893725      	14.917231      	14.943864      	14.657631      	14.691269      	14.943354      	14.95687       	14.821866      	14.699409      	14.8602705     	14.7353735     	14.831962      	14.818924      	14.7574215     	14.679414      	14.978319      	14.50346       	14.748454      	14.882534      	14.989304      	14.766255      	14.956149      	14.725521      	14.798965      	14.845377      	14.959578      	14.836559      	14.912253      	14.746461      	14.841435      	14.782353      	14.761137      	14.75759       	14.832487      	15.056701      	14.580882      	15.201675      	14.730273      	15.164286      	14.44146       	14.797185      	14.939919      	14.712436      	14.915157      	14.632638      	14.789306      	14.777478      	14.947931      	14.689878      	14.876966      	14.739723      	14.963524      	14.668915      	14.534697      	14.593748      	14.93306       	14.686763      	15.229496      	14.862727      	14.878783      	15.09009       	14.622372      	15.05862       	14.576011      	14.833964      	14.765844      	15.058257      	15.156281      	14.888166      	14.89422       	15.31068       	14.83767       	14.7198305     	14.625443      	14.835514      	14.813554      	14.684422      	14.644079      	
14.452234      	14.551083      	14.556935      	14.44796       	14.643301      	14.667249      	14.790789      	14.59722       	14.333321      	15.038446      	14.903346      	14.443919      	14.501534      	14.489607      	14.76132       	14.7064        	14.950659      	14.587071      	14.820292      	14.603091      	14.5146885     	14.48435       	14.766826      	14.511599      	14.663417      	14.333802      	14.528295      	14.345489      	14.831073      	14.893507      	14.574157      	14.6693535     	14.608593      	14.458128      	15.085687      	14.332084      	14.486391      	14.6471405     	14.414414      	14.467036      	14.953447      	14.435718      	14.437045      	14.521874      	14.685203      	14.725542      	14.931774      	14.827913      	14.711033      	14.731903      	14.962972      	14.902225      	14.591769      	14.752704      	15.216019      	14.598679      	15.04255       	14.650726      	14.63222       	14.581712      	14.83206       	14.72213       	14.537671      	14.3980055     	14.756061      	14.783154      	14.462988      	14.627364      	14.875829      	14.483687      	14.637129      	14.745064      	15.353333      	14.708826      	14.896662      	14.930092      	14.665142      	15.214487      	14.901584      	15.011191      	15.024903      	15.095206      	14.777987      	14.844987      	14.737483      	14.913443      	14.668209      	14.589632      	14.83604       	14.754384      	14.912921      	14.728744      	14.539447      	14.732913      	14.811545      	14.878897      	14.6915865     	14.917241      	14.863641      	14.952015      	
14.314552      	14.590203      	14.935476      	14.850527      	15.025621      	14.631687      	14.7592125     	14.586907      	14.5878935     	14.444618      	14.449115      	14.677194      	14.541215      	14.505442      	14.696833      	14.588353      	14.543583      	14.785726      	14.762017      	14.552377      	14.599145      	14.570029      	14.465282      	14.668253      	14.670927      	14.811586      	14.723518      	14.657374      	14.321194      	14.667885      	14.976115      	14.695747      	14.39529       	14.40236       	14.586391      	14.4569435     	14.765652      	14.485015      	14.767145      	14.626642      	14.654146      	14.498295      	14.407963      	14.699367      	14.265423      	14.776459      	14.428083      	14.497657      	14.694375      	14.4662075     	14.4547        	14.665586      	14.4061775     	14.377676      	14.555831      	15.16059       	14.997926      	15.031593      	14.522734      	15.069861      	14.923085      	15.001996      	14.814534      	14.7224865     	15.038637      	15.140552      	14.684065      	14.91029       	14.88219       	14.883437      	14.652277      	14.805         	14.965846      	14.587571      	14.704847      	15.025151      	14.333878      	15.332089      	14.604653      	14.836945      	14.938304      	14.88939       	14.760527      	15.023133      	14.979122      	14.937574      	15.342638      	14.656154      	15.069747      	15.372305      	14.866221      	14.637963      	14.778852      	14.883586      	14.554838      	14.733387      	15.422459      	14.828473      	14.539203      	14.779654      	
14.25863       	14.317582      	14.528054      	14.672284      	14.261197      	14.578338      	14.6649885     	14.581314      	14.435704      	14.60429       	14.681238      	14.336866      	14.742033      	14.493397      	14.575565      	14.639874      	14.715857      	14.749097      	14.561806      	14.753107      	14.618247      	14.748883      	14.529062      	14.6841        	14.551279      	14.918557      	15.143127      	14.97923       	14.9462185     	14.934671      	14.817974      	15.065121      	14.88128       	14.843341      	15.221435      	14.681603      	14.902502      	14.943891      	14.812025      	15.090986      	14.850673      	14.865167      	15.073843      	14.815419      	14.851275      	14.956713      	14.725256      	14.955918      	14.975767      	15.086444      	14.807914      	14.851462      	14.813926      	14.944444      	15.097221      	14.874744      	15.084151      	15.004666      	14.761894      	15.006107      	14.975226      	14.92311       	14.586351      	14.815663      	14.67486       	14.767032      	14.952429      	15.016261      	14.695696      	14.772729      	14.62945       	15.001307      	14.753924      	14.936698      	14.394235      	14.76425       	14.669951      	15.230719      	15.074487      	14.87371       	14.572077      	14.901475      	14.890588      	14.770535      	14.242863      	14.740812      	14.779306      	14.446271      	14.997216      	15.190518      	14.740426      	14.7851515     	16.109303      	15.448599      	15.321967      	15.075709      	15.220788      	15.056692      	14.701028      	15.260039      	
14.343445      	14.288115      	14.331305      	14.657322      	14.59744       	14.791226      	14.263382      	14.759819      	14.671441      	14.659276      	14.43758       	14.629877      	14.394557      	14.693939      	14.854817      	14.650228      	14.4189205     	14.330186      	14.584333      	14.573674      	14.450895      	14.488557      	14.720021      	14.675557      	14.807396      	14.54497       	14.526133      	14.461635      	14.337788      	14.637871      	14.474993      	14.776484      	14.740121      	14.487965      	14.484631      	14.470823      	14.734985      	14.784228      	14.5821705     	14.706959      	14.677972      	14.507811      	14.479232      	14.530084      	14.749498      	14.492543      	14.745824      	14.78697       	14.317111      	14.57934       	14.573357      	14.534693      	14.513116      	14.36728       	14.331379      	14.37329       	14.549213      	14.913499      	14.453465      	14.576085      	14.7422285     	14.583917      	14.565597      	14.452754      	14.664323      	14.4484005     	14.340226      	14.453337      	14.48599       	14.496212      	14.404631      	14.484925      	14.192365      	14.594719      	14.0857725     	13.491285      	14.1558075     	14.36793       	15.937675      	15.191291      	15.146497      	15.045983      	14.844823      	14.640148      	14.74028       	14.852357      	15.419453      	15.233696      	15.091572      	14.990162      	15.169863      	15.093574      	15.100671      	14.930031      	15.121314      	15.05753       	15.134019      	15.1178875     	14.772956      	14.827477      	
14.548043      	14.712733      	14.622859      	14.392952      	14.298552      	14.532565      	14.553066      	14.406305      	14.646142      	14.588194      	14.361891      	14.47101       	14.377347      	14.58632       	15.057776      	15.552015      	15.820831      	16.193035      	15.510921      	15.329269      	15.452828      	15.521261      	14.827826      	15.011361      	15.194956      	14.955581      	14.969018      	15.437676      	14.768423      	14.9612875     	15.053717      	14.920143      	14.913781      	15.118838      	15.779167      	14.872275      	14.8999815     	14.828379      	14.950642      	15.021576      	14.561122      	14.797995      	15.0763235     	14.785611      	15.274475      	14.690256      	15.127052      	14.946618      	15.202113      	14.922647      	14.871024      	14.8451395     	14.972079      	14.774708      	15.074344      	14.574419      	14.970432      	14.912151      	14.855256      	15.036298      	14.996437      	14.849237      	14.844145      	14.957236      	14.432089      	14.840107      	14.693367      	14.448946      	13.516111      	13.820296      	12.942714      	12.3959465     	11.733198      	11.28169       	11.261308      	11.120833      	11.427059      	11.56214       	12.81055       	15.738249      	15.01553       	15.405855      	14.9041605     	15.504492      	15.2147875     	14.95644       	14.8177        	15.021362      	15.265842      	15.264932      	15.092887      	14.957563      	15.006097      	15.554257      	14.648569      	15.091295      	15.985173      	15.024226      	14.744337      	15.068172      	
14.1770525     	14.252544      	14.411443      	14.5787115     	15.178225      	14.8425455     	15.065247      	14.872267      	14.9065        	15.126823      	14.974967      	14.588188      	14.776328      	14.513837      	14.6031475     	14.719284      	14.751358      	14.996356      	14.827858      	14.843496      	14.908513      	15.106595      	14.720176      	15.000342      	14.777346      	14.666406      	14.893704      	14.793779      	14.889783      	14.780908      	15.008388      	15.086346      	14.7277975     	14.700132      	14.851216      	14.744144      	14.753193      	15.0306015     	14.786873      	15.30062       	14.584725      	15.310435      	14.551361      	14.706417      	14.502669      	14.673712      	14.663004      	14.78968       	14.694178      	14.661813      	14.551291      	14.633367      	14.730936      	14.569242      	14.740013      	14.758509      	14.801417      	14.605042      	14.610949      	14.447994      	15.526955      	14.566447      	14.616194      	14.758205      	14.646463      	14.092252      	12.6227045     	11.670871      	11.458587      	11.289596      	10.988963      	11.028795      	11.088987      	11.004367      	10.856586      	10.9701185     	10.922523      	10.945084      	11.574899      	14.63686       	15.888677      	14.7912655     	15.146105      	15.009962      	15.021094      	14.977476      	14.953889      	14.778386      	15.008039      	14.641535      	14.716288      	14.974793      	15.458598      	14.669391      	14.815726      	14.697618      	14.5733185     	14.760437      	14.884229      	14.600367      	
14.734891      	14.795928      	14.592144      	14.541332      	14.5588255     	14.663936      	14.240966      	14.617181      	14.416464      	14.415536      	14.402303      	14.392856      	14.801305      	14.9712925     	14.90188       	15.082961      	15.139175      	14.820034      	14.885637      	14.92282       	15.568249      	14.605834      	15.087784      	14.961266      	15.198446      	15.423802      	15.035823      	14.941831      	14.826618      	14.957887      	14.776274      	14.828677      	14.874431      	14.8953285     	14.6174755     	14.752744      	15.622259      	14.055855      	14.6561165     	14.586033      	14.613993      	14.981363      	14.892579      	14.621793      	14.936956      	14.847459      	14.617188      	14.713559      	14.666107      	14.846423      	14.557748      	14.808031      	14.778585      	14.696351      	14.376843      	14.606762      	14.519147      	14.617936      	14.418561      	14.337025      	13.324133      	12.730714      	12.919921      	12.099879      	11.598039      	11.238712      	11.203591      	10.847113      	10.923106      	11.14496       	11.343195      	11.721463      	11.192269      	10.9998045     	11.169305      	11.178915      	10.904306      	11.291261      	11.829925      	13.343977      	16.103394      	15.316206      	14.998289      	15.041408      	14.805588      	15.147095      	15.278488      	14.988199      	14.692894      	14.770669      	15.172802      	14.327966      	14.931601      	14.973051      	14.744917      	14.682707      	14.677881      	14.964085      	14.997136      	14.589897      	
13.880954      	14.261334      	14.50486       	14.502687      	14.192705      	14.487502      	14.314398      	14.182771      	14.721216      	15.056975      	14.722878      	14.945087      	14.497904      	14.506824      	14.848427      	14.756458      	15.318109      	14.721345      	14.80849       	14.875548      	14.746712      	14.722288      	14.768806      	14.704116      	14.890875      	14.546419      	14.710172      	15.368492      	14.166385      	14.623654      	14.736939      	14.851682      	14.623981      	14.961065      	14.536496      	15.393616      	14.916016      	14.6276245     	14.793346      	14.92267       	14.529623      	15.056866      	15.097011      	14.533302      	14.978671      	14.615246      	14.573981      	14.532509      	15.002391      	14.640025      	14.353169      	14.722127      	14.872424      	14.573463      	15.490195      	14.107774      	13.166059      	12.30091       	11.830139      	12.005777      	11.60533       	11.138446      	11.130138      	11.000907      	10.856525      	11.218295      	11.781112      	11.346244      	11.140809      	11.6256075     	11.271693      	11.326169      	11.415173      	11.385974      	11.255303      	11.033778      	11.158229      	10.888623      	11.463948      	12.819439      	15.167773      	16.21243       	15.346221      	15.445576      	15.191595      	14.921697      	14.937925      	14.77859       	14.943508      	15.176571      	16.525585      	15.86382       	15.3118105     	15.391164      	15.1293        	15.056521      	15.088803      	14.80961       	14.824765      	14.859382      	
14.493898      	14.670183      	14.86346       	14.980831      	14.4498825     	14.838708      	14.527769      	14.529972      	14.445236      	14.546134      	14.284413      	14.47061       	14.160111      	14.341297      	14.395433      	14.807064      	14.571384      	14.508506      	14.637256      	14.32961       	14.3627        	14.586326      	14.529772      	14.278864      	14.906685      	14.372178      	14.484252      	14.497493      	14.551879      	14.652733      	14.460805      	14.360421      	14.632601      	14.568922      	14.428839      	14.413258      	14.240371      	14.560432      	14.438095      	14.584446      	14.402425      	14.617309      	14.526482      	14.370037      	14.238439      	14.487806      	14.507037      	14.315149      	14.253024      	14.4828005     	14.485022      	14.298138      	13.76346       	12.23908       	11.714402      	11.490641      	11.270621      	11.000941      	11.000085      	10.6341915     	11.023557      	11.009725      	11.007218      	10.993517      	11.074323      	10.941387      	10.656606      	10.95895       	11.13518       	11.030998      	11.340718      	11.479516      	11.603457      	11.264862      	11.556769      	11.318805      	10.965451      	11.035918      	11.656013      	12.403169      	13.203214      	15.363596      	14.541612      	14.821981      	14.556361      	14.534824      	14.463245      	14.63233       	14.282164      	14.380702      	14.446621      	14.569011      	14.419556      	14.6263895     	14.573981      	14.488447      	14.162858      	14.262853      	14.74117       	14.813311      	
14.579148      	14.361852      	14.549407      	14.677783      	14.231894      	14.350596      	14.454668      	14.330806      	14.36736       	14.461469      	14.473029      	14.530761      	14.542319      	14.433684      	14.540822      	14.522786      	14.461077      	14.50688       	14.206711      	14.3116665     	14.275845      	14.15823       	14.431145      	14.761964      	14.356625      	14.467663      	14.669282      	14.615509      	14.651529      	14.404258      	14.4048        	14.564976      	14.353322      	14.504558      	14.386171      	14.573055      	14.613342      	14.476577      	14.559741      	14.898231      	14.875286      	15.048995      	14.719031      	14.832277      	14.817527      	14.561583      	14.633034      	14.009487      	12.594736      	12.744421      	12.382421      	11.596767      	11.425636      	11.414149      	11.034353      	11.024941      	11.334228      	11.792304      	10.938437      	11.36187       	11.212043      	11.192013      	11.277366      	11.299794      	10.857647      	11.37192       	11.367622      	11.231732      	11.576007      	11.360148      	11.330149      	11.62336       	11.670888      	11.551793      	11.264702      	11.65415       	11.305623      	11.328896      	11.044093      	12.001813      	13.670218      	15.081575      	14.413141      	14.188315      	14.401936      	14.68538       	14.357456      	14.474199      	14.693614      	14.7767515     	14.461276      	14.567364      	14.649934      	15.158522      	14.58972       	14.875034      	14.984715      	14.151413      	14.790273      	14.372176      	
14.175765      	14.331038      	14.286179      	14.4398775     	14.480502      	14.664783      	14.640851      	14.369517      	14.3769045     	14.446339      	14.396634      	14.552213      	14.443379      	14.3087        	14.528974      	14.446121      	14.453592      	14.424797      	14.27856       	14.726189      	14.469227      	14.447589      	14.457956      	14.420368      	14.624774      	14.6222725     	14.367891      	14.679169      	14.663449      	15.136827      	15.036015      	15.68417       	14.807046      	14.683216      	14.760214      	14.844871      	15.160682      	14.94879       	14.871567      	14.84853       	14.725438      	14.748579      	14.783678      	14.834215      	13.131634      	12.615563      	12.219977      	11.019424      	11.1623        	11.287416      	11.156605      	11.333469      	11.008616      	11.117061      	11.013786      	11.314892      	11.049365      	11.007381      	11.149117      	11.558838      	11.574961      	11.413809      	11.443916      	11.597009      	11.4547825     	11.40022       	11.638071      	11.363322      	11.398786      	11.624728      	11.308828      	11.556627      	11.790299      	12.514571      	11.793448      	11.406233      	11.312555      	11.0562725     	11.210972      	11.749084      	13.74505       	15.341027      	15.205569      	14.87          	14.663227      	15.377605      	14.608523      	14.916444      	15.064086      	14.713695      	14.71334       	15.319613      	14.911957      	15.039986      	14.80165       	14.9622135     	14.770388      	15.225403      	14.803003      	14.778844      	
14.192371      	14.308514      	14.22757       	14.248949      	14.358377      	14.364352      	14.470633      	14.147941      	14.374549      	14.218195      	14.548856      	14.26455       	14.3167305     	14.415533      	14.678942      	14.445019      	14.527348      	14.206579      	14.351027      	14.572409      	14.558211      	14.472723      	14.545417      	14.584531      	14.472048      	14.3871565     	14.370129      	14.958817      	14.731752      	15.131181      	14.734343      	14.738402      	14.890779      	16.188976      	15.585814      	15.089681      	15.490087      	15.140611      	15.082812      	14.766212      	15.351946      	14.774763      	13.777671      	11.815597      	11.280353      	11.063158      	11.292202      	11.069983      	11.116772      	11.151579      	11.062253      	11.285692      	11.119836      	11.206807      	11.072966      	11.119609      	11.177012      	11.463918      	11.546778      	11.302046      	11.417907      	11.259329      	11.571438      	11.677946      	11.312386      	11.573484      	11.522575      	11.40014       	11.521772      	11.700927      	11.676232      	11.639291      	11.683617      	11.606284      	11.488498      	11.01142       	11.332484      	11.3201        	11.390939      	11.523652      	13.271277      	14.495775      	15.203406      	15.026021      	14.572232      	14.831211      	14.88399       	14.943535      	14.831564      	15.083894      	14.72171       	15.169095      	15.068926      	14.990478      	15.0595875     	14.753853      	14.864197      	15.385349      	14.784876      	15.000251      	
14.137591      	14.486442      	14.64683       	14.482321      	14.387142      	14.61763       	14.457134      	14.342725      	14.435765      	14.343827      	14.419012      	14.350789      	14.63167       	14.5108795     	15.0481825     	15.16919       	15.206042      	14.984208      	14.914146      	15.43673       	15.004506      	15.062346      	15.880945      	16.034973      	15.639248      	15.239148      	14.951586      	15.125241      	14.713406      	14.667644      	14.8980875     	14.941315      	14.846474      	14.528013      	14.777388      	14.656441      	15.058415      	14.830187      	14.958623      	14.808562      	14.565245      	13.944061      	11.926698      	11.131596      	10.637095      	10.847387      	10.951365      	11.425798      	11.446198      	11.472071      	11.129853      	11.536598      	11.324507      	11.411325      	11.1825695     	11.7322035     	11.573591      	11.49109       	11.336329      	11.549984      	11.505812      	11.556999      	11.459044      	11.702994      	11.682655      	11.557179      	11.772767      	11.648047      	11.755475      	11.643074      	11.602056      	11.466273      	11.466814      	12.181579      	11.742613      	11.320637      	11.761946      	11.132103      	10.821218      	11.506487      	13.197022      	14.248232      	15.710023      	14.695595      	14.999528      	14.96366       	14.767261      	14.929107      	14.770398      	14.897127      	14.569755      	14.766361      	14.545011      	14.764971      	15.195504      	15.267318      	14.771357      	15.07027       	14.67208       	14.668094      	
14.223284      	14.646641      	14.7646885     	14.598821      	14.73322       	14.840628      	14.694573      	14.511011      	14.614857      	14.906013      	15.073887      	15.211613      	14.977039      	15.17639       	15.462173      	15.728788      	15.06453       	14.837399      	15.000477      	15.2802515     	15.2910595     	14.477053      	14.99941       	16.596052      	15.97571       	15.567201      	15.139568      	15.319142      	15.14959       	14.964627      	15.13392       	14.945936      	14.912926      	14.990003      	14.73555       	14.875126      	15.139701      	15.283551      	15.244034      	15.005702      	14.764445      	13.566675      	12.012692      	11.540684      	10.935684      	11.046213      	11.208977      	11.171297      	11.794608      	11.407689      	12.031979      	12.29          	11.929167      	11.802679      	11.8282795     	11.872985      	11.813344      	11.778651      	11.707227      	11.609481      	11.571821      	11.74468       	11.653672      	11.71343       	11.752262      	11.516651      	11.50147       	11.838286      	11.931272      	11.751882      	11.843653      	11.75842       	12.002939      	11.575839      	11.635694      	11.654885      	11.430998      	11.279739      	11.319512      	11.562514      	12.045975      	14.0747795     	16.0249        	15.06471       	14.878203      	15.230059      	15.055938      	14.86559       	15.334815      	14.561299      	15.503024      	15.576085      	14.670462      	14.906351      	14.896503      	14.751453      	14.933124      	14.723036      	15.287818      	14.843417      	
14.304915      	14.418803      	14.308582      	14.375757      	14.542568      	14.707525      	14.270839      	14.392273      	14.40193       	14.473408      	14.318705      	14.29564       	14.520655      	14.567892      	14.420661      	14.420032      	14.635571      	14.624961      	14.920589      	15.151517      	15.170913      	15.354873      	15.111071      	15.510412      	15.290074      	14.943588      	14.793176      	15.085628      	15.014609      	15.059422      	14.845505      	15.126416      	14.902618      	16.230146      	15.40076       	15.438958      	15.352473      	15.203926      	15.16902       	15.192594      	15.5569725     	13.23225       	12.233874      	11.8460865     	11.44359       	11.3020735     	11.267396      	11.368228      	11.35824       	11.485451      	11.770098      	11.678959      	11.712329      	11.29814       	11.631872      	11.53842       	11.637959      	11.419945      	11.356076      	11.65489       	11.878115      	11.775024      	11.576696      	11.527902      	11.908807      	11.620851      	11.605656      	11.733424      	11.462291      	11.778353      	11.250289      	11.447179      	11.643348      	11.346125      	11.848304      	11.021331      	11.420255      	11.12544       	10.99273       	10.880102      	12.138878      	13.264923      	16.213976      	14.2711315     	14.581223      	15.173381      	14.702004      	15.402321      	14.634684      	14.745561      	14.50714       	15.282935      	14.170253      	15.326996      	13.807495      	14.38167       	15.677909      	14.217369      	14.753987      	14.79723       	
14.082699      	14.309242      	14.340161      	14.214058      	14.327327      	14.432917      	14.198016      	14.208978      	14.809188      	14.343087      	14.345762      	15.134322      	14.940659      	14.915406      	14.789336      	15.473123      	14.767619      	15.240935      	14.83952       	14.858729      	15.096426      	15.221195      	14.811452      	14.971867      	15.179452      	15.587834      	14.435773      	15.113258      	14.857204      	14.545585      	14.605784      	14.789762      	15.024361      	15.4207535     	14.770257      	15.000655      	14.867669      	14.753261      	14.634852      	14.878227      	14.90508       	14.820724      	12.320568      	11.76252       	11.469319      	11.302313      	11.616432      	11.302451      	11.340501      	11.553637      	11.538387      	11.429352      	11.290284      	11.681108      	11.581986      	11.84518       	11.677055      	11.781066      	11.790198      	11.392048      	12.048055      	12.255849      	11.8392315     	11.775199      	11.7791605     	11.785317      	11.709118      	12.093733      	11.46831       	11.507211      	11.912289      	12.508638      	12.154811      	11.974572      	11.747216      	11.628532      	11.572568      	11.496014      	11.120586      	11.056153      	11.237136      	12.584986      	15.246729      	16.179655      	15.617424      	15.403969      	14.81099       	15.018667      	14.955549      	14.85907       	15.073225      	14.959296      	14.724187      	15.31003       	14.708115      	14.780197      	14.968673      	14.910669      	14.9434805     	14.739512      	
14.575341      	14.526379      	14.739257      	14.603856      	14.708864      	14.862548      	14.569671      	14.360003      	14.520072      	14.659016      	14.767611      	14.753431      	14.824747      	14.541766      	14.7790575     	14.286614      	14.837697      	15.013906      	14.947555      	14.97976       	15.050635      	15.399565      	15.126748      	15.288245      	15.229661      	15.13511       	15.023314      	15.03308       	15.256677      	15.155411      	14.993317      	15.391438      	14.6539345     	14.972076      	14.797493      	14.957537      	15.056585      	14.935213      	14.819021      	15.305103      	15.037058      	14.6689625     	12.935129      	12.454651      	11.1144705     	11.042614      	11.131766      	11.499695      	11.176188      	11.545336      	11.324621      	11.562378      	11.588525      	11.780843      	11.87334       	11.723662      	11.6249485     	11.756991      	11.40451       	11.558591      	11.298215      	11.593487      	11.193834      	11.619486      	11.657588      	11.510446      	11.425684      	11.395361      	11.265834      	10.753452      	11.705305      	11.433514      	11.636787      	11.480847      	11.5751095     	11.317933      	11.352074      	11.262358      	11.048298      	10.958232      	11.193238      	12.0122595     	14.376393      	16.073723      	14.623454      	14.6296215     	15.035758      	14.721264      	14.958054      	15.125085      	15.000783      	14.6096525     	14.694028      	14.969544      	15.027007      	14.711716      	14.488172      	14.623666      	14.919924      	14.860507      	
14.409081      	14.419787      	14.562126      	14.60781       	14.276825      	14.479494      	14.219105      	14.148286      	14.227691      	14.099847      	14.211563      	14.276511      	14.535958      	14.303535      	12.678408      	12.969777      	13.868192      	13.952685      	15.169717      	15.800631      	15.072817      	14.753752      	14.8407755     	15.176785      	15.192727      	15.016551      	15.475968      	14.98609       	14.877997      	15.062229      	14.837844      	15.072604      	14.864447      	15.179094      	14.90574       	15.7958555     	15.8984585     	15.425742      	15.064058      	15.442091      	15.051672      	14.874337      	12.93098       	11.763328      	11.669286      	11.493995      	11.136713      	11.586975      	11.75798       	12.120412      	11.602794      	11.554525      	11.67884       	11.630855      	11.502748      	11.498879      	11.792891      	11.501431      	11.620964      	11.607343      	11.545496      	11.679882      	11.326469      	11.677985      	11.515958      	11.402765      	11.637094      	11.419361      	11.586765      	11.093857      	11.307186      	11.681508      	12.496833      	11.878509      	11.538525      	11.623857      	11.513796      	11.218158      	11.0301485     	11.022832      	11.419705      	12.570917      	14.053847      	15.368206      	14.329394      	15.287837      	14.589535      	14.52867       	14.818413      	14.656576      	14.907548      	14.471623      	14.748459      	14.814682      	14.907185      	14.682365      	14.992557      	14.950518      	14.514428      	15.336138      	
