# www.neaspec.com
# Scan:	 	Whitelight Imaging
# Project:	 	20251007_PS
# Description:	 	
# Date:	 	10/07/2025 13:27:15
# Scanner Center Position (X, Y):	[µm]	49.99	50.01	 
# Rotation:	[°]	0	 	 
# Scan Area (X, Y, Z):	[µm]	5.000	5.000	0.000
# Pixel Area (X, Y, Z):	[px]	100	100	1
# Interferometer Center/Distance:	[µm]	548.096	0.000	 
# Averaging:	 	1	 	 
# Integration time:	[ms]	5	 	 
# Wavenumber Scaling:	 	1.000000	 	 
# Laser Source:	 	4.5-15 µm nano-FTIR laser
# Detector:	 	R
# Target Wavelength:	[µm]	7.502	 	 
# Demodulation Mode:	 	Fourier
# Tip Frequency:	[Hz]	241,340.500	 	 
# Tip Amplitude:	[mV]	45.700	 	 
# Tapping Amplitude:	[nm]	77.130	 	 
# Modulation Frequency:	[Hz]	0.000	 	 
# Modulation Amplitude:	[mV]	0.000	 	 
# Modulation Offset:	[mV]	0.000	 	 
# Setpoint:	[%]	79.75	 	 
# Regulator (P, I, D):	 	4.206850	8.625812	1.000000
# Tip Potential:	[mV]	0.000	 	 
# M1A Scaling:	[nm/V]	0.426	 	 
# M1A Cantilever Factor:	 	1,000	 	 
# Q-Factor:	 	487.4	 	 
# Version:	 	2.1.11536.0
14.786133      	14.728842      	14.371523      	14.684686      	14.908791      	14.704933      	14.805542      	14.71666       	14.713587      	14.728765      	14.868965      	14.913492      	14.713775      	14.796587      	15.082145      	15.177481      	13.906893      	12.383203      	11.685259      	11.387416      	10.818181      	11.156966      	10.952132      	11.3896265     	11.16948       	11.491358      	11.302158      	11.41775       	11.18548       	11.267146      	11.336034      	11.357912      	11.232568      	11.446527      	11.458848      	11.441902      	11.394201      	11.733685      	11.587094      	11.605459      	11.591408      	11.546638      	11.293683      	11.730774      	11.796224      	11.647839      	11.815941      	11.555479      	11.878126      	11.741757      	12.021544      	11.221723      	11.799812      	12.5566435     	11.655441      	11.910859      	13.203189      	14.448809      	14.659212      	14.799759      	14.873729      	14.81175       	14.87266       	14.495779      	14.924066      	14.671187      	14.538398      	14.822873      	14.514988      	14.743986      	14.561516      	14.751402      	14.923082      	14.957191      	14.786557      	14.5586195     	14.851396      	14.679429      	14.89919       	14.770327      	14.684692      	14.782101      	14.873722      	14.454347      	14.652955      	14.818115      	14.773402      	14.511659      	14.8535595     	14.92425       	14.545612      	14.734819      	14.661099      	14.854388      	14.7409525     	14.763432      	14.931618      	15.009712      	14.721685      	14.62752       	
14.895401      	14.8303        	14.58787       	14.8213625     	14.695736      	14.770971      	14.668706      	14.927555      	14.618037      	14.780717      	14.783832      	14.871544      	15.496961      	15.130238      	14.81132       	15.229673      	14.996986      	12.19436       	11.416305      	10.985408      	11.31116       	11.110622      	11.443614      	11.487045      	11.317206      	11.469949      	11.64204       	11.220107      	11.398639      	11.30952       	11.425861      	11.407018      	11.538075      	11.527415      	11.697823      	11.720563      	11.671388      	11.663283      	11.5985365     	11.868413      	11.492966      	11.276431      	11.435843      	11.968077      	11.586591      	12.054983      	11.79925       	11.914236      	12.005188      	11.752182      	11.763723      	12.297048      	11.7083645     	11.918509      	12.125291      	13.17131       	14.443961      	14.537146      	14.499919      	14.27572       	14.549434      	14.768798      	14.670099      	14.827905      	14.552013      	14.53533       	14.728668      	14.496194      	14.708558      	14.899538      	14.6588        	14.598505      	14.809537      	14.693694      	14.710374      	14.371113      	14.552778      	14.460811      	14.494534      	14.513109      	14.731401      	14.507719      	14.6465        	14.822392      	14.702281      	14.507162      	14.850648      	14.874148      	14.644895      	14.705217      	14.95198       	14.868201      	14.83695       	14.921464      	15.171026      	15.092075      	15.532055      	15.359971      	14.981475      	14.638576      	
14.791387      	14.65012       	14.187774      	14.855722      	14.606991      	15.042858      	14.893743      	14.700707      	14.661365      	14.675425      	14.560789      	14.576405      	14.641893      	14.882245      	15.020348      	14.929561      	15.166443      	12.969793      	12.002661      	11.23572       	10.893841      	10.839546      	11.085021      	11.279124      	11.496128      	11.356099      	11.540305      	11.218258      	11.390322      	11.332777      	11.35753       	11.222965      	11.282361      	11.458684      	11.4170475     	11.528911      	11.383495      	11.43164       	11.650074      	12.282085      	12.346441      	11.980135      	12.293782      	12.387688      	12.354225      	12.718432      	12.205547      	12.29389       	12.658977      	12.562112      	12.909996      	12.6176605     	12.565606      	12.921593      	14.497371      	15.054416      	14.630283      	14.66468       	14.535553      	14.766183      	14.638493      	14.564096      	14.966722      	14.292285      	14.766387      	14.666248      	14.583665      	14.768645      	14.685945      	14.866356      	14.771596      	14.76183       	14.986712      	14.567159      	14.826708      	14.841478      	14.826796      	14.689165      	14.876805      	14.612482      	15.181216      	14.800321      	14.9529705     	14.71849       	14.952733      	15.490164      	15.774791      	15.242895      	14.912207      	15.004318      	15.9273205     	15.600741      	15.8988495     	16.254877      	15.414726      	16.076256      	15.888675      	15.494909      	15.064843      	14.2514925     	
14.927742      	14.624425      	14.144738      	15.158293      	14.742108      	14.62253       	14.775981      	14.61977       	14.709065      	14.433747      	14.604545      	14.457547      	14.689774      	14.71515       	14.71371       	14.271955      	16.153446      	13.658656      	12.138276      	11.337764      	11.016236      	11.001104      	11.032139      	11.407367      	11.428232      	11.713152      	11.391032      	11.260577      	11.177451      	11.696933      	11.638454      	11.456473      	11.268426      	10.916068      	11.054663      	11.185573      	11.943775      	10.9840555     	11.61238       	11.84541       	12.0009575     	12.467585      	11.5684        	12.777781      	13.191865      	13.024168      	13.489187      	13.552679      	13.524673      	13.761251      	14.715056      	14.537823      	14.728927      	14.304812      	14.596905      	14.764296      	14.444657      	14.565555      	14.695409      	14.257884      	14.369246      	14.333917      	14.093789      	14.088573      	14.672805      	14.542053      	14.628555      	14.563747      	14.991636      	14.764402      	14.444875      	14.702492      	14.568712      	14.662858      	14.693283      	14.748245      	14.709224      	14.566304      	14.252371      	14.60544       	14.859112      	15.058564      	14.495703      	14.830479      	14.833788      	14.709247      	14.596883      	14.968538      	14.8689995     	15.07258       	15.148738      	14.821568      	14.793878      	14.488915      	15.201332      	14.936569      	14.887982      	15.016687      	14.778126      	14.508232      	
14.467829      	14.471902      	14.451487      	14.65032       	14.489849      	14.471034      	14.759337      	14.492372      	14.433767      	14.618314      	14.246713      	14.438849      	14.697092      	14.384227      	14.122574      	14.279596      	15.431203      	13.77151       	12.063494      	11.497536      	11.141302      	11.149531      	11.109733      	11.416062      	11.494515      	11.26888       	11.510838      	11.586725      	11.014534      	11.004367      	11.182862      	10.987202      	11.180929      	11.563352      	11.0257635     	11.079815      	12.135613      	11.465455      	12.101851      	12.409673      	12.310045      	12.61241       	13.212209      	14.248757      	14.022943      	14.532574      	14.707074      	14.968467      	15.084699      	14.935163      	14.536062      	14.340051      	14.6607895     	14.489835      	14.476898      	14.819832      	14.766591      	14.597974      	14.687056      	14.84169       	15.070514      	14.563492      	14.743666      	14.618089      	14.555978      	14.629665      	14.790522      	14.764365      	14.8804655     	14.643365      	14.782389      	14.756164      	14.690949      	14.770336      	14.651581      	14.441121      	14.738695      	14.586295      	14.472321      	14.853962      	14.605093      	14.683565      	14.467206      	14.784657      	14.718428      	14.611961      	14.382326      	14.477584      	14.463754      	14.734374      	14.439823      	14.906939      	14.9377985     	15.305618      	15.387513      	14.416657      	15.293763      	15.465755      	15.26467       	14.986962      	
14.838367      	14.638631      	14.896905      	14.788598      	14.583995      	14.884765      	15.12976       	14.989707      	15.15451       	14.937121      	15.045025      	14.9115715     	15.200585      	15.246356      	15.000059      	14.821616      	15.893769      	14.374072      	12.420838      	11.773473      	11.182657      	11.0895        	11.276606      	11.649718      	12.241875      	12.090578      	11.602985      	11.757276      	11.903594      	11.768623      	12.154273      	11.87883       	11.930193      	12.271607      	11.95153       	12.447497      	12.429099      	12.7805805     	13.29829       	13.441276      	14.831777      	14.716294      	14.646292      	15.716563      	14.7279215     	15.16718       	14.772907      	14.67766       	14.675023      	14.721962      	14.706167      	15.434934      	14.761145      	14.421385      	14.726883      	14.571798      	14.612478      	14.650846      	14.823086      	14.860299      	14.698619      	15.017621      	14.5591545     	14.618733      	14.490861      	14.619992      	14.909852      	14.987835      	14.678379      	14.860157      	14.762478      	14.361849      	15.257063      	14.511473      	14.6960125     	14.787107      	14.455837      	15.190068      	14.82991       	14.264461      	14.6652155     	14.544678      	14.739175      	14.505599      	14.6609535     	14.687942      	14.583061      	14.826631      	14.948528      	15.277805      	14.527797      	14.343127      	14.756884      	15.421523      	15.269242      	15.514187      	15.788131      	14.630511      	14.603089      	14.85688       	
14.4235325     	14.419452      	14.657883      	14.869386      	14.615272      	14.6249485     	14.811012      	14.772818      	14.353922      	14.459304      	14.350387      	14.512582      	14.919911      	14.878486      	14.810111      	14.841391      	15.51088       	15.3832445     	12.659841      	11.680011      	11.511493      	11.5207615     	11.655673      	11.463519      	11.472739      	11.787384      	11.842476      	11.698343      	11.89545       	12.472078      	12.692516      	13.09283       	12.6574955     	13.142168      	12.270257      	13.080881      	13.505944      	13.756189      	15.285613      	14.7380085     	14.426551      	14.553074      	14.440877      	14.597255      	14.375865      	14.767639      	14.524148      	14.515217      	14.52892       	14.602772      	14.895564      	14.315079      	15.131728      	14.352261      	14.385915      	14.179136      	14.482573      	14.123884      	14.427083      	14.948062      	14.615077      	14.446304      	14.731012      	14.616024      	14.594988      	14.479927      	14.599836      	14.548269      	14.738518      	14.259825      	14.755374      	14.595838      	15.0126095     	14.340129      	14.446143      	14.433758      	14.880247      	14.723984      	14.679537      	14.043823      	14.331521      	14.569827      	14.74127       	14.482356      	14.592719      	14.542176      	14.273127      	14.699819      	14.692655      	14.320132      	14.522744      	15.03458       	15.082205      	15.082095      	15.053384      	15.042881      	15.299729      	15.503629      	15.319695      	14.720622      	
14.726075      	14.5812645     	14.726486      	14.8687525     	14.849699      	14.776176      	14.755891      	14.768883      	14.999695      	14.672261      	14.926208      	14.635509      	14.645647      	14.744786      	14.402627      	14.542561      	15.0716715     	15.741541      	13.755181      	12.89334       	12.793161      	12.239968      	11.999163      	12.033104      	11.970878      	12.588601      	12.420529      	11.976146      	12.418457      	12.44409       	12.465891      	13.353672      	13.6997385     	14.792355      	14.6278925     	14.412741      	14.449482      	14.467183      	14.735517      	14.036262      	14.3649435     	14.483231      	14.460598      	14.5012455     	14.63885       	14.499723      	14.561391      	14.867952      	14.540147      	14.553581      	15.138484      	14.27813       	15.3945265     	15.046885      	14.363779      	14.709012      	14.368146      	14.580442      	14.936522      	14.61256       	14.754316      	14.514562      	14.808899      	14.548005      	14.594674      	14.583872      	14.734871      	14.443342      	14.919475      	14.858789      	14.678863      	14.545114      	14.955822      	14.871549      	14.883485      	14.859697      	14.73457       	14.969904      	14.5757475     	14.457461      	14.736205      	14.712584      	14.8563        	14.773297      	14.912701      	14.324443      	14.789381      	14.4427595     	14.45074       	14.738526      	14.709737      	14.558131      	14.484883      	14.642397      	15.148967      	15.184043      	15.453502      	15.190782      	15.25892       	15.304896      	
14.618674      	14.69445       	14.824958      	14.919964      	14.576582      	14.773599      	14.961444      	14.7565975     	14.574389      	15.078391      	14.669537      	14.970069      	14.757183      	14.958573      	14.953707      	15.026464      	14.866892      	15.413001      	15.2048        	15.46191       	13.497116      	12.58235       	12.310819      	12.792909      	12.903701      	12.895047      	13.052603      	13.728345      	14.456135      	14.469175      	14.563861      	14.695461      	14.608885      	14.324365      	14.470369      	13.817083      	15.370479      	14.850482      	14.520964      	13.649341      	14.503395      	14.321016      	14.574891      	14.231087      	14.525291      	14.498451      	14.294162      	14.464301      	14.805635      	14.343077      	14.328062      	14.512599      	14.162531      	14.372231      	14.183469      	14.58643       	14.446577      	14.628727      	14.550499      	14.697254      	14.708563      	14.591933      	14.623078      	14.4576845     	14.874406      	14.688141      	14.630279      	14.313577      	14.756521      	14.86761       	14.617277      	14.520636      	14.620616      	14.506515      	14.493015      	14.509471      	14.511238      	14.738926      	14.899164      	14.526344      	14.686138      	14.752155      	14.735807      	14.7624655     	14.688111      	15.140508      	14.573423      	14.503478      	14.898683      	14.648541      	14.414026      	15.359618      	14.785837      	14.590642      	14.509453      	14.337763      	14.299942      	15.224899      	15.310308      	15.262609      	
14.536593      	14.898191      	14.755656      	14.665829      	14.649266      	14.7707405     	14.692244      	14.347765      	14.550699      	14.84343       	14.783164      	14.499994      	14.790183      	14.872913      	15.010174      	14.581721      	14.748869      	14.690478      	15.724324      	15.874973      	14.370331      	13.461593      	13.439856      	13.385573      	13.834197      	14.806484      	14.633485      	14.772065      	14.655251      	14.531627      	14.694253      	14.701421      	14.63181       	15.09181       	14.881894      	14.227078      	14.094375      	14.528267      	14.516687      	14.387642      	14.23957       	14.518305      	14.473873      	14.38374       	14.677458      	14.344433      	14.595738      	14.508824      	14.500642      	14.523623      	14.988         	14.532059      	14.367976      	14.79373       	14.566038      	14.476734      	14.876424      	14.902382      	14.648118      	14.475046      	14.909461      	14.935471      	14.632494      	14.934799      	14.8844185     	15.006166      	14.779653      	14.824708      	14.622095      	14.555661      	14.7783985     	14.39293       	14.672768      	14.184774      	15.067199      	15.229235      	15.068337      	14.957708      	15.019629      	15.062016      	14.966248      	15.063177      	14.689075      	15.134189      	15.266608      	15.068204      	15.22873       	15.278978      	15.097783      	15.801129      	15.964865      	15.219724      	15.360551      	15.377576      	15.524959      	15.420189      	15.443525      	15.991167      	16.138226      	15.369317      	
14.570293      	14.538763      	14.1887245     	14.3637295     	14.583337      	14.788973      	14.625434      	14.717783      	14.865192      	14.534275      	14.51092       	14.732521      	14.521284      	14.509298      	14.505572      	14.473576      	14.556854      	14.174302      	14.8323555     	14.302543      	14.954188      	14.611953      	14.871631      	14.905438      	14.347692      	14.595842      	14.634399      	14.403371      	14.28992       	14.273618      	14.157376      	14.233243      	14.436454      	14.11462       	14.724329      	14.167604      	14.02634       	14.28313       	14.474933      	14.58834       	14.375519      	14.584298      	14.8414955     	14.661033      	14.693249      	14.75198       	14.633412      	14.625785      	14.373839      	14.792105      	14.69084       	14.684519      	14.862749      	15.100287      	14.477962      	14.553556      	14.567702      	14.961724      	14.62796       	14.533974      	14.680286      	14.809718      	14.955811      	14.574124      	14.721788      	14.745062      	14.695863      	14.831965      	15.023559      	14.773522      	14.613842      	14.580357      	14.767669      	14.835185      	14.738756      	14.678501      	14.856272      	15.161109      	15.874572      	14.713507      	14.765797      	14.663276      	14.681895      	14.946948      	14.962973      	14.67919       	14.771705      	15.022024      	14.651152      	14.446852      	14.732789      	14.832327      	14.347965      	14.887593      	14.8793745     	15.000486      	15.075749      	15.07555       	15.393797      	15.323631      	
14.367027      	14.700525      	14.876074      	14.661778      	15.074775      	14.923303      	14.81573       	14.844038      	14.411247      	14.876918      	14.857993      	14.816857      	14.731536      	14.87958       	14.68736       	14.875333      	14.698731      	14.6266        	14.483292      	14.398684      	14.71011       	14.4024935     	14.707973      	14.724486      	14.415996      	14.491038      	14.514901      	14.723317      	14.451261      	14.591253      	14.561222      	14.584995      	14.410327      	14.394389      	14.717856      	14.483921      	14.653242      	14.450964      	14.509436      	14.43535       	14.568188      	14.429922      	14.938916      	14.54643       	14.570647      	14.508829      	14.814997      	14.395151      	14.349283      	14.7437725     	14.382062      	14.598164      	14.6418705     	14.615988      	14.593933      	14.555694      	14.614633      	14.745589      	14.53482       	14.77722       	14.644781      	14.355941      	14.540321      	14.772062      	14.533601      	14.4825945     	14.976985      	14.563797      	14.355264      	14.557184      	14.684153      	14.695066      	14.732671      	14.661339      	14.383695      	14.794738      	14.777044      	14.759674      	14.612582      	14.812779      	14.975351      	14.945707      	14.871177      	14.498797      	14.856222      	14.809332      	14.329629      	15.274119      	15.125037      	14.270494      	14.869524      	15.039004      	14.76605       	14.7390585     	15.151447      	15.525935      	15.441833      	15.246661      	15.238666      	14.643167      	
14.41629       	14.4571905     	14.658522      	14.554412      	14.649346      	14.613494      	14.731397      	14.739614      	14.75755       	14.664971      	14.806771      	14.436599      	14.580806      	14.6111355     	14.534457      	14.57176       	14.664642      	14.629639      	14.656781      	14.606853      	14.617194      	14.405303      	14.401406      	14.417301      	14.1970005     	14.502202      	14.508936      	14.430426      	14.333461      	14.498459      	14.664919      	14.337481      	14.399499      	14.617755      	14.343122      	14.580369      	14.3223915     	14.194015      	14.617561      	14.108325      	14.270826      	14.183369      	14.396761      	14.2164955     	14.46836       	14.399703      	14.303212      	14.404195      	14.594692      	14.44111       	14.508441      	14.705662      	14.601079      	14.271586      	14.462678      	14.036573      	14.715035      	14.711342      	14.93153       	14.887997      	14.774585      	14.528525      	14.849576      	14.833384      	14.605252      	14.824342      	14.959692      	14.609382      	14.743884      	14.775546      	14.914414      	14.764767      	14.524851      	14.862341      	14.697181      	14.527785      	14.704693      	14.757046      	14.701216      	14.811046      	14.901785      	14.745096      	14.784978      	14.619176      	14.258892      	14.973041      	15.01972       	14.897409      	14.908331      	14.843209      	14.88443       	15.1016035     	15.078916      	15.039257      	14.892861      	14.84852       	14.769317      	14.929576      	14.987666      	14.955653      	
14.600134      	14.620181      	14.503692      	14.836442      	14.7063        	14.613383      	14.822908      	14.626596      	14.522873      	14.773533      	14.7443695     	14.547928      	14.5491905     	14.539774      	14.444165      	14.45158       	14.731671      	14.73305       	14.674933      	14.575664      	14.545303      	14.598465      	14.571803      	14.251306      	14.396124      	14.546986      	14.462125      	14.422858      	14.266137      	14.784548      	14.358746      	14.345204      	14.49002       	14.61822       	14.385799      	14.491508      	14.426614      	14.635227      	14.758776      	14.503245      	14.466623      	14.3571205     	14.407826      	14.626657      	14.589287      	14.497449      	14.602397      	14.41362       	14.781107      	14.685825      	14.389974      	14.382778      	14.697284      	14.39336       	14.738846      	14.66105       	14.493071      	14.629714      	14.635006      	14.594808      	14.7065325     	15.5056505     	15.15472       	14.190149      	14.797302      	14.489935      	14.577662      	14.744239      	14.61914       	14.702141      	14.755311      	14.615706      	14.640743      	14.53074       	14.626138      	15.179147      	14.515318      	14.320615      	14.839224      	14.609147      	14.773929      	15.08019       	14.78787       	14.910379      	14.858404      	14.779227      	14.702186      	14.811577      	14.63541       	14.709318      	14.746433      	14.961622      	15.076104      	14.876516      	15.075522      	14.942505      	14.832683      	14.505345      	14.572672      	14.803547      	
14.544708      	14.678045      	14.688766      	14.649036      	14.924054      	14.843229      	14.70185       	15.076735      	14.724647      	14.759801      	14.808865      	14.966001      	14.654233      	14.449387      	14.902707      	14.692553      	14.844798      	14.560609      	14.542178      	14.713656      	14.501235      	14.574091      	14.4349575     	14.352631      	14.487572      	14.537183      	14.642392      	14.511541      	14.406251      	14.553751      	14.628842      	14.670935      	14.625518      	14.529417      	14.582865      	14.657559      	14.426435      	14.341926      	14.549979      	14.8110695     	14.468877      	14.4309845     	14.7915945     	14.113843      	14.578397      	14.857973      	14.568486      	14.610802      	14.584691      	14.601056      	14.641671      	14.704212      	14.53497       	14.90094       	14.626997      	14.973889      	14.6838665     	14.62954       	14.655426      	14.942439      	14.845626      	14.713794      	14.753551      	14.541121      	14.700612      	14.670398      	14.900768      	14.80085       	14.549816      	14.372483      	14.536334      	14.925938      	14.761647      	14.612542      	14.573278      	14.661429      	14.597245      	14.703211      	14.745996      	14.430015      	14.893605      	14.889629      	14.805391      	14.8479        	14.717804      	14.618836      	14.955687      	14.800574      	14.57371       	14.907241      	14.538688      	14.274893      	14.752762      	14.921398      	15.015063      	15.073605      	14.951566      	15.128801      	15.269239      	15.094767      	
14.430863      	14.672106      	14.755623      	14.657551      	14.780104      	14.49166       	14.412551      	14.489827      	14.4376335     	14.329142      	14.410413      	14.531263      	14.543857      	14.533615      	14.306871      	14.728196      	14.140867      	14.537717      	14.418655      	14.490148      	14.478407      	14.578002      	14.473255      	14.103864      	14.415679      	14.520643      	14.391806      	14.508851      	14.575005      	14.56054       	14.344875      	14.512235      	14.481982      	14.458197      	14.467607      	14.286915      	14.615551      	14.359581      	14.365315      	14.439401      	14.54038       	14.56023       	14.712887      	14.451692      	14.5561905     	14.645787      	14.809405      	14.296242      	14.472085      	14.586891      	14.524721      	14.79786       	14.492366      	14.354346      	14.521143      	14.4088955     	14.302359      	14.630425      	15.013141      	14.76064       	14.8625145     	14.5974045     	14.528876      	14.820001      	14.578078      	14.611066      	14.631676      	14.677485      	14.875541      	14.2901945     	14.60578       	14.823879      	14.659161      	14.552263      	14.61906       	14.683512      	14.662728      	14.925675      	14.65435       	14.63776       	14.523524      	14.724208      	14.621431      	14.897281      	14.731882      	14.703882      	14.924052      	14.713654      	14.610041      	14.90153       	14.64686       	14.553951      	14.909485      	14.533961      	14.87991       	15.105719      	14.8815155     	15.088278      	14.829846      	14.869331      	
14.777898      	14.526308      	14.722798      	14.696975      	14.715864      	14.487865      	14.732047      	14.543616      	14.74047       	14.711523      	14.485205      	14.669673      	14.575373      	14.533398      	14.621837      	15.0144825     	14.745028      	14.53361       	14.54345       	14.62144       	14.732918      	14.637765      	14.854345      	14.618046      	14.569503      	14.626895      	14.684557      	14.850899      	14.51297       	14.606286      	14.794751      	14.764375      	14.829256      	14.838948      	14.6453085     	14.715369      	14.740159      	14.673999      	14.80733       	14.820645      	14.835713      	14.7986765     	14.632549      	14.771904      	15.074329      	15.585039      	14.604113      	14.199177      	14.741396      	14.788003      	14.806914      	14.4968815     	14.794937      	14.917264      	14.819034      	15.348736      	14.733035      	14.630595      	14.790114      	15.131378      	14.631519      	14.757342      	14.779451      	14.906958      	16.05522       	15.147931      	14.40066       	14.811242      	14.777051      	14.889526      	14.812393      	14.84491       	14.913451      	15.009908      	15.062188      	15.256892      	15.622087      	14.666543      	14.153711      	15.01382       	14.9468565     	14.596528      	14.93301       	14.791751      	14.76662       	15.084308      	14.696745      	14.736811      	14.695214      	14.92301       	14.678768      	14.845445      	14.75098       	14.845582      	15.412166      	14.795593      	14.903642      	14.9598465     	14.798359      	14.723943      	
14.339048      	14.856995      	14.845906      	14.705488      	14.836249      	14.752127      	14.500393      	14.614167      	14.65826       	14.588854      	14.774435      	14.663461      	14.726007      	14.615352      	14.802885      	14.912066      	14.942288      	14.831805      	14.882003      	14.909417      	14.747866      	14.545436      	14.823326      	14.888112      	14.589049      	14.875119      	14.513717      	14.947467      	14.566478      	14.811887      	14.64182       	14.72406       	14.665568      	14.594784      	14.434026      	14.703131      	14.546925      	14.863864      	14.542887      	14.951601      	14.466837      	14.631921      	14.804493      	14.550516      	14.986426      	14.770694      	14.983709      	14.605837      	14.662624      	14.76604       	14.683903      	14.838194      	14.958208      	14.7255125     	14.507667      	14.62254       	14.851395      	14.818893      	14.831875      	15.587064      	14.784716      	14.684368      	14.7706585     	14.946201      	14.644236      	14.390702      	14.82557       	14.579361      	14.533597      	14.651768      	14.784127      	14.639928      	14.90037       	14.808602      	14.776064      	14.640708      	14.886369      	15.171445      	14.850704      	14.91465       	14.894782      	14.780592      	15.043221      	14.393203      	15.022123      	15.081143      	14.958544      	14.804845      	15.0358095     	14.8834715     	15.260197      	15.209841      	14.845217      	15.082776      	15.062772      	15.190284      	15.418039      	16.193806      	15.433362      	13.753342      	
14.904573      	14.865469      	14.679781      	14.741024      	14.773982      	14.916846      	14.846727      	14.698359      	14.855354      	14.588559      	14.422431      	14.699517      	14.672812      	14.6322975     	14.706386      	14.546527      	14.706624      	14.73825       	14.6781225     	14.521615      	14.813332      	14.866506      	14.797821      	14.827418      	14.53517       	14.647424      	14.9197        	14.730241      	14.587121      	14.882306      	14.530634      	14.692176      	14.8869        	14.680649      	14.640904      	15.06758       	14.856198      	14.899359      	14.72313       	14.591442      	14.908768      	14.823837      	14.655351      	14.7361145     	14.954455      	14.910378      	14.837357      	14.600674      	14.889567      	14.883369      	14.848917      	14.881329      	14.666915      	14.587631      	14.809         	14.604816      	14.924833      	14.591523      	14.957293      	14.902587      	14.800781      	14.894513      	14.785349      	14.719094      	14.950079      	14.985615      	14.9552145     	14.938184      	14.844746      	14.784526      	15.116051      	14.970161      	14.821211      	15.023948      	15.024141      	15.01339       	14.902945      	14.6297655     	15.309487      	15.037861      	14.924361      	15.345736      	14.938339      	15.299942      	15.356988      	15.182928      	15.298598      	15.222877      	15.241285      	15.022415      	15.165947      	15.395433      	15.92076       	15.197793      	14.03603       	13.847888      	12.997793      	12.316461      	12.06903       	11.777085      	
14.694384      	14.580341      	14.799399      	14.740714      	14.75988       	14.835098      	14.5949        	14.531423      	14.822447      	14.820499      	14.859691      	14.815784      	14.891468      	14.597853      	14.641016      	14.723928      	14.641728      	14.8074045     	14.60508       	14.766015      	14.7697115     	14.678133      	14.741959      	14.609764      	14.739791      	14.686557      	14.772073      	14.613201      	14.579575      	14.776006      	14.497526      	14.800334      	14.797306      	14.553318      	14.721817      	14.681968      	14.63408       	14.693835      	14.609173      	14.533824      	14.775762      	14.8075485     	14.556816      	14.870064      	14.723477      	14.537101      	14.6792        	14.707604      	14.663189      	14.571795      	14.907782      	14.785832      	14.859159      	14.802611      	14.584593      	14.744979      	14.65426       	14.548676      	14.787132      	14.533149      	14.812117      	14.988721      	14.911454      	14.718733      	14.84031       	14.93062       	14.625027      	14.771985      	14.594835      	14.540241      	14.793987      	14.76623       	14.838013      	14.658207      	14.833178      	15.187463      	14.884488      	14.911565      	14.896049      	15.169338      	14.958964      	14.750671      	14.9090805     	14.890674      	15.046865      	15.009638      	15.245721      	15.132268      	15.720793      	14.776623      	14.564325      	12.942094      	12.02674       	11.417706      	11.247253      	11.549018      	11.164495      	11.099366      	11.087127      	11.324665      	
14.990776      	14.642095      	14.960489      	14.690192      	14.74592       	14.844116      	14.931571      	14.7199955     	14.798409      	14.965999      	14.650231      	14.800139      	15.1308975     	14.667924      	14.848813      	14.69869       	14.689554      	14.895938      	14.655924      	14.74668       	14.83583       	14.71732       	14.864968      	14.69584       	14.671242      	14.703243      	14.600853      	14.895491      	14.685288      	14.849881      	14.806356      	14.678159      	14.845821      	14.696033      	14.573494      	14.783528      	14.857375      	14.833608      	14.957971      	14.865607      	14.798909      	14.610234      	14.854676      	14.867793      	14.597182      	14.701371      	14.921715      	14.723754      	14.800028      	15.099196      	14.787262      	14.775812      	14.538293      	15.025101      	14.797703      	14.713054      	14.938889      	14.575608      	14.561029      	14.967347      	14.888153      	14.768775      	15.016696      	14.831434      	14.846031      	15.078557      	14.896282      	14.6183815     	14.918551      	14.705817      	14.921341      	14.805143      	14.790906      	14.886237      	14.606028      	14.815438      	14.802708      	15.000177      	14.863384      	14.945392      	14.9194975     	14.931112      	14.434849      	14.92005       	14.917423      	14.819605      	15.383239      	14.6515255     	12.810105      	11.426522      	11.136715      	11.466193      	11.386546      	10.8460455     	11.109949      	10.895166      	10.977281      	11.06449       	11.234059      	11.535718      	
14.650731      	14.584847      	14.664786      	14.738536      	14.351133      	14.63554       	14.524209      	14.550586      	14.674459      	14.486059      	14.528766      	14.874487      	14.554016      	14.479008      	14.643187      	14.430097      	14.438527      	14.442103      	14.609391      	14.387913      	14.711056      	14.58885       	14.3115225     	14.896835      	14.534413      	14.649494      	14.482545      	14.693575      	14.567246      	14.478391      	14.852918      	14.465         	14.564896      	14.482918      	14.428096      	14.555739      	14.700052      	14.341813      	14.691998      	14.20186       	14.347197      	14.304762      	14.560939      	14.269768      	14.459257      	14.529354      	14.7794895     	14.549144      	14.728966      	14.609727      	14.623699      	14.651395      	14.475199      	14.911401      	15.475947      	14.575351      	14.679029      	14.610423      	14.421052      	14.6347275     	14.681753      	14.328236      	14.875799      	14.697068      	14.527046      	14.862941      	14.629343      	14.578342      	14.707484      	14.820852      	14.730914      	14.632691      	14.991712      	14.655449      	14.715042      	14.809527      	14.669436      	14.480938      	14.658683      	14.822644      	14.649278      	14.671412      	14.500396      	14.2618475     	14.753096      	16.321657      	14.155437      	12.555799      	11.705663      	10.849988      	10.826342      	11.103326      	11.199747      	11.161301      	11.286757      	11.335107      	11.471606      	11.518159      	11.505003      	11.36511       	
14.6703205     	14.543125      	14.78924       	14.691269      	14.796219      	14.639137      	14.569731      	14.712909      	14.490387      	14.570551      	14.608907      	14.553539      	14.865135      	14.586539      	14.685176      	14.701919      	14.720427      	14.941957      	14.618737      	14.722149      	14.617821      	14.863532      	14.909587      	15.080571      	14.6098385     	14.838932      	14.520833      	14.468205      	14.795265      	14.634388      	14.535651      	14.978006      	14.699682      	14.807017      	14.877271      	14.919594      	14.741777      	14.578012      	14.719808      	14.615752      	14.781755      	14.70923       	14.600382      	14.678253      	14.450168      	14.639867      	14.50175       	14.585801      	14.700114      	14.678199      	14.891178      	14.628788      	14.730144      	14.910991      	14.442358      	14.598496      	14.78399       	14.571428      	14.678907      	14.647172      	14.453802      	14.869997      	14.744283      	14.6812935     	14.6821        	14.843926      	14.710211      	14.829164      	14.53212       	14.748029      	14.925692      	14.514286      	14.70684       	14.817576      	14.732272      	14.64042       	14.814168      	14.913226      	14.649585      	14.976507      	14.960185      	14.807291      	14.736867      	15.236494      	14.644714      	15.562041      	12.801422      	11.712363      	11.010485      	11.069368      	11.019229      	11.425586      	11.852963      	11.249717      	11.10273       	11.458347      	11.435733      	11.553207      	11.837485      	11.775663      	
14.652563      	14.78669       	14.810441      	14.601836      	14.732739      	14.662194      	14.661659      	14.860675      	14.46787       	14.496988      	14.535557      	14.403236      	14.614005      	14.457591      	14.56441       	14.391746      	14.488028      	14.527389      	14.637718      	15.027395      	14.62375       	14.894904      	14.776443      	14.813874      	14.7422495     	14.453202      	14.6262245     	14.543827      	14.721699      	14.589242      	14.69822       	14.786598      	14.817663      	14.868646      	15.392717      	14.370788      	14.722443      	14.79243       	14.721987      	14.306813      	14.826468      	14.864643      	14.750707      	14.549709      	14.708541      	14.78468       	14.76982       	14.636585      	14.657233      	15.066274      	14.593985      	14.610048      	14.502091      	14.710163      	14.529672      	14.671142      	14.610688      	14.507404      	14.753444      	14.308754      	14.888135      	14.578105      	14.672726      	14.451615      	14.830029      	14.940562      	14.98547       	14.821735      	15.183677      	14.60154       	15.037035      	14.923473      	14.877297      	14.67685       	15.033229      	14.80666       	14.716215      	15.027874      	15.004167      	14.827845      	14.738587      	15.192204      	14.955146      	14.817134      	15.41644       	15.151543      	12.551361      	11.965209      	11.370767      	11.011044      	10.9748335     	11.238243      	11.547761      	11.497861      	11.396285      	11.692205      	11.523995      	11.584663      	12.075586      	11.937344      	
14.478474      	14.516466      	14.797865      	14.405674      	14.439172      	14.716737      	14.520521      	14.63258       	14.501867      	14.582093      	14.661331      	14.694917      	14.580364      	14.492637      	14.638048      	14.483446      	14.503505      	14.388207      	14.633706      	14.456949      	14.518986      	14.49417       	14.518346      	14.349456      	14.675326      	14.676536      	14.790714      	14.510617      	14.614025      	14.540642      	14.830534      	14.667488      	15.682335      	15.487515      	14.851024      	13.826161      	13.874561      	14.648788      	14.943646      	14.706304      	14.481769      	14.746871      	14.72908       	14.801583      	14.613599      	14.72161       	14.64926       	14.995371      	14.736181      	15.023369      	14.832077      	14.886653      	14.820825      	14.926969      	14.8646        	15.141374      	14.844292      	15.040346      	14.581814      	14.675272      	14.872139      	14.86721       	14.730387      	14.900568      	14.83344       	14.877791      	14.828248      	14.857388      	15.060074      	14.770609      	14.917762      	15.14477       	14.967441      	14.857178      	14.676459      	14.964365      	14.804053      	14.920127      	14.801209      	14.721542      	14.713001      	15.099744      	14.847391      	15.0484085     	14.671262      	15.504083      	13.059293      	11.888165      	12.064564      	11.504864      	11.080279      	11.166038      	11.513458      	11.659324      	11.50501       	11.333685      	11.78146       	11.753141      	11.753949      	11.828067      	
14.777799      	14.846903      	14.747455      	14.835769      	14.699425      	14.625365      	14.511598      	14.766913      	14.892754      	14.536817      	14.470674      	14.773836      	14.875373      	14.597203      	14.732792      	14.761007      	14.785357      	14.70388       	14.831618      	14.703972      	14.701136      	14.936856      	14.620302      	14.75172       	14.51168       	14.658002      	15.154249      	14.805683      	14.529569      	14.873535      	14.513683      	14.494989      	14.868201      	14.663072      	14.666998      	15.063064      	14.752877      	14.7332735     	14.853973      	14.737866      	14.7135725     	14.649503      	14.674721      	14.396105      	14.729417      	14.667427      	14.798143      	14.699465      	14.767083      	14.625046      	14.483585      	14.531382      	14.827946      	14.571169      	14.6360655     	14.608229      	14.404869      	14.711563      	14.716475      	14.449198      	14.663398      	14.612078      	14.596326      	14.751601      	14.818582      	14.644197      	14.594867      	14.5741        	14.695854      	14.58196       	14.689136      	14.465961      	14.639502      	14.659046      	14.825926      	14.651391      	14.662809      	14.844803      	14.472606      	14.621083      	14.898238      	14.577198      	14.761584      	14.79446       	14.512625      	15.983343      	13.605249      	12.352151      	11.878821      	11.588361      	11.199856      	11.188978      	11.427447      	12.174265      	11.795335      	12.06224       	12.063179      	11.503169      	11.543372      	11.486478      	
14.731821      	14.686472      	14.41849       	14.494717      	14.732479      	14.691318      	14.765888      	14.846341      	14.739692      	14.678511      	14.84861       	14.746277      	14.779729      	14.913007      	14.380022      	14.930037      	14.729342      	14.872854      	14.839118      	14.93282       	14.7523575     	14.483224      	14.606892      	14.667574      	14.853039      	14.754331      	14.912552      	14.661685      	14.656879      	14.626377      	14.647223      	14.5228405     	14.59988       	14.633068      	14.647876      	14.769396      	14.986931      	14.58427       	14.547371      	14.804607      	14.60053       	14.718015      	14.467342      	14.700923      	14.680652      	14.733322      	14.607966      	14.702292      	14.835723      	14.615794      	14.826587      	14.685703      	14.639602      	14.878698      	14.790951      	14.968656      	15.748903      	15.7153845     	15.685602      	14.677398      	14.845209      	15.006819      	15.080674      	15.0152445     	14.888415      	14.867854      	14.9195385     	14.959945      	14.708189      	14.817169      	14.870749      	14.953778      	14.644134      	14.809432      	15.151058      	14.965374      	14.8713455     	15.080341      	14.974713      	14.9572735     	15.071016      	14.937019      	14.966961      	15.038814      	14.983302      	15.780936      	14.326183      	12.647782      	12.023548      	11.483956      	11.328618      	11.284116      	11.30947       	11.500919      	11.646182      	11.706317      	11.791801      	11.790769      	11.948988      	11.7279415     	
14.876859      	14.686475      	14.8197155     	14.803829      	14.77243       	14.691683      	14.914609      	14.919954      	14.759221      	14.911404      	14.625528      	14.947371      	14.809554      	14.90349       	14.60829       	14.678133      	14.8339        	14.661173      	14.9629135     	14.8063345     	14.99889       	14.819336      	14.839704      	14.773515      	14.973759      	15.026889      	14.990975      	15.321966      	14.90409       	14.712644      	14.699782      	15.073581      	14.921612      	14.938354      	14.6616745     	14.906017      	14.654722      	14.834694      	15.049113      	15.265211      	15.245759      	15.044758      	14.681423      	14.700575      	14.899487      	15.011496      	14.827873      	14.721081      	14.773692      	14.929201      	14.908151      	15.145661      	14.8579235     	14.959103      	15.194687      	15.214301      	15.331249      	13.681914      	12.356792      	11.626352      	11.688193      	12.312622      	13.065919      	14.627088      	14.732476      	14.817586      	14.592312      	14.779485      	15.009844      	14.916861      	14.937177      	14.873986      	14.944003      	15.021809      	15.090555      	14.888523      	14.872328      	14.804075      	14.77956       	14.750941      	14.748553      	15.010412      	14.8707285     	14.9456415     	15.300545      	15.270954      	15.387697      	12.971608      	12.007794      	11.416987      	11.3489        	10.898805      	11.420944      	11.574828      	11.524968      	11.5454645     	11.40967       	11.397137      	11.604406      	11.636557      	
14.742717      	14.481957      	14.83973       	14.621905      	14.768748      	14.8169155     	14.52096       	14.852764      	14.842898      	14.9523945     	14.731872      	14.834128      	14.53646       	14.740164      	14.526381      	14.758701      	14.671276      	14.647036      	14.64537       	14.449324      	14.620797      	14.886776      	14.6781845     	14.722046      	14.509208      	14.772767      	14.299297      	14.89061       	14.665559      	14.748136      	14.601383      	14.542672      	14.973566      	14.633619      	14.766731      	14.856646      	14.799925      	14.965758      	14.6219635     	14.875426      	14.741395      	14.733332      	14.621831      	14.810506      	14.893188      	14.994022      	14.704065      	14.93059       	15.117733      	14.712221      	15.512045      	14.700466      	15.249505      	14.090292      	12.179026      	11.650189      	11.543212      	11.658778      	10.951381      	10.787668      	10.777405      	11.09543       	11.215821      	13.391967      	14.713174      	14.810719      	14.579348      	14.68552       	14.901227      	14.756358      	14.549805      	14.735948      	14.617078      	14.875877      	14.845273      	14.865662      	14.736888      	15.013939      	14.911626      	14.784055      	14.822392      	14.985307      	14.9416895     	14.772326      	14.9928875     	14.8274145     	16.029446      	13.407955      	12.318465      	11.89957       	11.434342      	11.065603      	11.166675      	11.545687      	11.489058      	11.5591345     	11.781382      	11.615862      	11.66207       	11.432739      	
14.518077      	14.556556      	14.649689      	14.290458      	14.6674595     	14.746456      	14.48857       	14.197561      	14.44414       	14.584788      	14.4396105     	14.870105      	14.460771      	14.224343      	14.81799       	14.892386      	14.667421      	14.776979      	14.814173      	14.616133      	14.731715      	14.555809      	14.915609      	14.771905      	14.79046       	14.473673      	14.587201      	14.511895      	14.577266      	14.644719      	14.396429      	14.753351      	14.610816      	14.657076      	14.636641      	14.58935       	14.615976      	14.439527      	14.5604        	14.528157      	15.053585      	14.554628      	14.314573      	14.448286      	14.415371      	14.605702      	14.243553      	15.186462      	13.460047      	12.66779       	11.804486      	11.669963      	11.128303      	11.235026      	10.8524475     	10.7450905     	10.870103      	10.81409       	11.010843      	10.631495      	10.727245      	11.031229      	11.353895      	12.0045185     	14.857718      	14.825563      	14.724145      	14.593107      	14.867173      	14.7358265     	14.618198      	14.819751      	14.6505575     	14.730276      	14.554352      	14.734393      	14.632523      	14.606683      	14.758094      	14.632428      	15.074849      	14.745829      	14.846122      	14.791201      	14.905298      	14.821934      	15.644844      	14.4419        	12.6529255     	12.346481      	11.628923      	11.189496      	11.51923       	11.447201      	11.687475      	11.73928       	11.914438      	11.911177      	11.8258505     	11.835313      	
14.447891      	14.704579      	14.532268      	14.373671      	14.53552       	14.632657      	14.352284      	14.554937      	14.747061      	14.472477      	14.590931      	14.589285      	14.523639      	14.588578      	14.609789      	14.523851      	14.602401      	14.783216      	14.516479      	14.4351225     	14.969844      	14.725657      	14.992739      	14.535437      	14.9003935     	14.726536      	14.769027      	14.6998005     	14.695277      	14.637256      	14.706834      	14.833953      	14.476446      	14.830769      	14.612101      	14.714611      	14.800485      	14.514362      	14.755468      	14.690106      	14.35179       	14.339918      	15.383252      	13.969251      	12.897876      	12.755438      	11.785676      	11.412988      	11.155468      	10.933098      	10.902246      	10.934586      	10.876067      	10.9552765     	11.074862      	11.43144       	11.496381      	11.1688385     	11.21368       	11.424697      	11.0318985     	11.075841      	11.431292      	12.3466625     	14.238701      	14.627108      	14.657882      	14.778318      	14.807066      	14.573918      	14.783884      	14.850722      	14.750518      	15.044928      	14.843167      	14.886129      	14.656115      	14.985491      	14.759067      	14.307592      	14.668017      	14.756636      	14.719118      	14.988159      	14.645258      	14.704083      	16.01097       	13.943086      	12.5021925     	11.9088745     	11.533801      	11.338878      	11.163287      	11.334723      	11.4983015     	11.452573      	11.528722      	11.515198      	11.419392      	11.498158      	
14.694608      	14.1907425     	14.568833      	14.658825      	14.660299      	14.756058      	14.49199       	14.604051      	14.717983      	14.60452       	14.579194      	14.544594      	14.412215      	14.692924      	14.720728      	14.6294155     	14.682631      	14.808243      	14.373787      	14.864153      	14.603429      	14.797273      	14.660926      	14.874978      	14.658293      	14.751841      	14.583769      	14.763282      	14.939822      	14.574355      	14.604013      	14.6045265     	14.565939      	14.253401      	14.743351      	14.474185      	14.618058      	14.571262      	15.012427      	14.783198      	13.3209095     	12.654542      	11.681632      	11.462352      	11.113896      	10.87355       	10.81698       	10.881041      	10.762617      	10.946096      	11.030619      	11.151269      	11.185716      	11.433465      	11.298565      	11.190854      	11.466426      	11.08548       	11.226284      	11.313298      	10.76439       	11.381192      	11.328754      	12.528719      	13.607856      	14.882521      	14.9845        	14.934771      	14.910373      	14.959272      	15.020808      	14.97621       	15.042017      	15.219804      	15.128445      	15.038204      	15.185193      	15.007382      	15.025233      	15.019839      	15.231478      	15.26701       	15.400194      	15.39961       	15.344703      	15.533813      	16.023699      	14.86909       	12.775675      	12.137654      	11.992638      	11.52657       	11.409138      	11.447274      	11.576474      	11.66929       	11.692014      	11.650417      	11.8760805     	11.826833      	
14.63855       	14.35326       	14.946062      	14.853134      	14.68845       	14.710833      	14.695156      	14.791025      	14.83715       	14.61403       	14.59712       	14.757821      	14.835836      	14.674436      	14.914058      	14.448321      	14.760868      	14.629438      	14.674628      	14.658968      	14.826613      	14.740298      	14.854565      	14.575616      	14.671764      	14.794644      	14.867873      	14.608785      	14.798149      	14.593423      	14.556241      	14.751769      	14.172715      	14.562597      	16.061447      	13.99596       	11.969552      	11.924098      	11.762171      	11.188083      	10.995073      	10.815661      	10.829204      	11.124931      	10.9331455     	11.044121      	11.120815      	11.061407      	11.089935      	11.445933      	11.0995245     	11.113207      	11.4987135     	11.2853        	11.518815      	11.432278      	11.430148      	11.253048      	11.374376      	11.3550825     	11.038614      	11.258833      	12.094028      	12.103145      	13.464728      	14.678252      	14.706849      	14.721543      	14.737359      	14.873954      	14.805662      	14.898395      	14.787962      	14.842138      	14.809728      	14.702302      	14.963757      	15.013323      	15.011483      	14.840289      	15.005036      	15.1374855     	14.873482      	14.926755      	14.964657      	15.026773      	15.03534       	16.05067       	13.614495      	12.185661      	11.64633       	11.618763      	11.1594        	11.258191      	11.281524      	11.67423       	11.700802      	12.144111      	12.005327      	11.660657      	
14.542032      	14.775901      	14.743891      	14.959249      	14.707803      	14.651048      	14.755496      	14.9007435     	14.777619      	14.634312      	14.495731      	14.64339       	14.502552      	14.680914      	14.900043      	14.608921      	14.731025      	14.634346      	14.534578      	14.630796      	14.572351      	14.717938      	14.782154      	14.466561      	14.873977      	14.65043       	14.786381      	14.599778      	14.476695      	14.787579      	13.929804      	13.917266      	13.438634      	11.835083      	11.53749       	11.411395      	11.046456      	10.721764      	10.8839        	10.731233      	10.871336      	11.067064      	11.046541      	10.97126       	11.113257      	11.031224      	11.113969      	11.136769      	11.135836      	11.265298      	11.239939      	11.232722      	11.356916      	11.367068      	11.322448      	11.295511      	11.326882      	11.405362      	11.280557      	11.386554      	11.235898      	10.978858      	11.137982      	11.306657      	12.584932      	14.681028      	14.848353      	14.817571      	14.682217      	14.777951      	14.816711      	15.199355      	14.846486      	14.865531      	15.002059      	14.900664      	14.775336      	15.153181      	14.924807      	14.717781      	14.848139      	14.964569      	14.93737       	14.982916      	14.979756      	15.458369      	15.00011       	16.083315      	14.108544      	12.443371      	11.777398      	11.51852       	11.033839      	10.96381       	10.998987      	11.400478      	11.44055       	11.314767      	11.303539      	11.196503      	
14.024796      	14.707901      	14.782416      	14.665935      	14.676675      	14.49764       	14.696873      	14.601272      	14.63357       	14.606443      	14.621801      	14.325462      	14.790739      	14.432707      	14.905243      	14.7983265     	14.76952       	14.571834      	14.850605      	14.609431      	14.570369      	14.646342      	14.544964      	14.995043      	14.511692      	14.787309      	14.673614      	15.51746       	14.23957       	12.047024      	11.420459      	11.316184      	10.957998      	10.974463      	10.759676      	10.908728      	10.899329      	10.998255      	11.182865      	11.036667      	11.0040655     	10.946889      	11.0438385     	11.178307      	11.305142      	11.284537      	11.352606      	11.29151       	11.1833515     	11.268937      	11.447284      	11.511687      	11.495475      	11.337819      	11.560966      	11.599625      	11.59906       	11.482664      	11.468438      	11.425464      	11.461207      	11.404244      	10.828049      	11.7666235     	12.29441       	14.512375      	14.352841      	14.704985      	14.73705       	14.683905      	14.701809      	14.633834      	14.523907      	14.51133       	14.742741      	14.607931      	14.852653      	14.67041       	14.65228       	14.612675      	14.857497      	14.380464      	15.014707      	14.767479      	14.884617      	15.0287285     	14.636959      	15.269831      	14.653235      	12.882709      	12.141747      	12.060273      	11.19273       	11.169585      	11.432112      	11.394764      	11.491162      	11.536743      	11.451237      	11.226283      	
14.503529      	14.66998       	14.836596      	14.678542      	14.577528      	14.484392      	14.4538355     	14.563129      	14.66644       	14.579912      	14.765314      	14.691926      	14.541811      	14.717513      	14.241267      	14.450116      	14.431969      	14.528631      	14.316063      	14.642814      	14.516139      	14.408139      	14.8197975     	14.441243      	14.1162405     	15.203655      	15.218647      	13.326713      	11.909213      	10.685645      	10.659992      	10.9301195     	10.864852      	11.192341      	11.257861      	11.121364      	11.089267      	11.215346      	11.0285225     	11.370324      	11.119566      	11.501242      	11.242179      	11.273205      	11.251662      	11.438543      	11.5104885     	11.431152      	11.540975      	11.522893      	11.569894      	11.43897       	11.643537      	11.429228      	11.787474      	11.627893      	11.73669       	11.557008      	11.6858835     	11.759252      	11.549276      	11.036994      	11.36971       	11.385103      	11.782411      	13.441394      	14.55047       	14.658916      	14.630227      	14.560478      	14.585668      	14.937898      	14.983138      	15.01509       	14.967598      	15.038049      	14.982855      	14.890995      	14.7951765     	15.064502      	14.766171      	14.951108      	15.083994      	15.004112      	14.948109      	15.118726      	15.368892      	15.444518      	15.305864      	12.971684      	12.333196      	12.020566      	11.393085      	11.0196        	11.48996       	11.386042      	11.588414      	11.766985      	11.4285555     	11.098213      	
14.680422      	14.57283       	14.614984      	14.550589      	14.57773       	14.627983      	14.535487      	14.641673      	14.65253       	14.783076      	14.556693      	14.501792      	14.357381      	14.7114725     	14.475569      	14.776456      	14.556902      	14.689632      	14.682785      	14.671116      	14.662671      	14.673252      	14.717545      	14.7824745     	14.792096      	15.67243       	12.582289      	11.887107      	11.009424      	10.618089      	10.706911      	10.730466      	11.150826      	10.927306      	11.285329      	11.0747        	11.273334      	11.300465      	11.305934      	11.373141      	11.204985      	11.326477      	11.442239      	11.408392      	11.333486      	11.352539      	11.210271      	11.378653      	11.401851      	11.414208      	11.399004      	11.545497      	11.529985      	11.324035      	11.488856      	11.443544      	11.473804      	11.536448      	11.2526655     	11.362878      	11.152983      	11.0283785     	11.047469      	11.100999      	11.362248      	13.195071      	14.541887      	14.519063      	14.867794      	14.573871      	14.659065      	14.665522      	14.631308      	14.422442      	14.826179      	14.767752      	14.68716       	14.848608      	14.563302      	14.887623      	14.838986      	15.137444      	14.761362      	14.794334      	14.94561       	14.819714      	14.61826       	14.502133      	16.166487      	13.208911      	12.292033      	11.604583      	11.076513      	10.716253      	11.095285      	11.213072      	11.626177      	11.861914      	11.829528      	11.696478      	
14.538921      	14.810324      	14.621121      	14.684609      	14.640998      	14.738258      	14.704953      	14.5754595     	14.648244      	14.614488      	14.53057       	14.56289       	14.724821      	14.741165      	14.733345      	14.83403       	14.7984295     	14.509058      	14.519829      	14.591801      	14.268769      	14.842999      	14.902688      	14.568956      	15.327356      	14.674707      	12.951567      	12.089023      	11.441133      	10.982782      	10.898803      	11.012115      	11.090038      	11.232555      	11.130921      	11.3797035     	11.298071      	11.296942      	11.443311      	11.374227      	11.331305      	11.39856       	11.252484      	11.293902      	11.144821      	11.344039      	11.4274235     	11.332654      	11.430245      	11.60761       	11.479196      	11.823642      	11.590156      	11.580334      	11.638131      	11.2655525     	11.465654      	11.374535      	11.410903      	11.610039      	11.027214      	10.973817      	10.905916      	10.956873      	11.10368       	12.909539      	14.659633      	14.696857      	14.631144      	14.853013      	14.53678       	14.862768      	14.858491      	14.507207      	14.603465      	14.864572      	14.61484       	14.792866      	14.531509      	14.881789      	14.584505      	14.802562      	14.690699      	14.961317      	14.819375      	14.7033615     	14.605695      	14.749658      	15.688537      	13.943048      	12.232822      	11.587737      	11.882601      	11.213248      	11.059434      	11.131209      	11.330838      	11.49001       	11.455991      	11.388972      	
14.4355755     	14.626634      	14.46368       	14.5306015     	14.500224      	14.501593      	14.813252      	14.528676      	14.716607      	14.657176      	14.503613      	14.718416      	14.574792      	14.513176      	14.759423      	14.734459      	14.556884      	14.637025      	14.463197      	14.548038      	14.669412      	14.580681      	14.631917      	15.010775      	15.50957       	14.478168      	12.302328      	11.814759      	11.287047      	11.287179      	10.860948      	11.114338      	11.199916      	11.36834       	11.271783      	11.278141      	11.317925      	11.3873205     	11.189671      	11.50415       	11.214921      	11.727855      	11.326184      	11.270868      	11.372245      	11.433737      	11.443132      	11.510453      	11.467693      	11.427266      	11.460016      	11.394755      	11.360215      	11.235071      	11.682671      	11.1388445     	11.487204      	11.314488      	11.18142       	11.436179      	11.180368      	11.223597      	11.050238      	10.954397      	10.886364      	11.6143465     	14.238792      	14.67683       	14.526855      	14.9106865     	14.419151      	14.661389      	14.890433      	14.892045      	14.934041      	14.670048      	14.933294      	14.528329      	14.68373       	14.824454      	14.6810055     	14.824924      	14.766643      	14.63232       	14.663698      	14.631284      	14.445538      	14.946607      	14.98832       	15.129064      	12.749732      	11.852891      	11.248374      	10.964028      	11.04654       	11.222887      	11.663433      	11.784016      	11.833081      	11.642184      	
14.417486      	14.746606      	14.695235      	14.503221      	14.685464      	14.324021      	14.504851      	14.760269      	14.444496      	14.632938      	14.548702      	14.3561735     	14.442088      	14.649318      	14.512886      	14.831099      	14.347756      	14.686027      	15.0130625     	14.277352      	14.636571      	14.718047      	14.785609      	14.731914      	14.828941      	15.36524       	12.892381      	12.215441      	11.690964      	11.09134       	10.995766      	11.42346       	11.158422      	11.375327      	11.425966      	11.302551      	11.470304      	11.445221      	11.294667      	11.419778      	11.237478      	11.541469      	11.3698        	11.425335      	11.391355      	11.539689      	11.354789      	11.305796      	11.221586      	11.450037      	11.225267      	11.37055       	11.611878      	11.352894      	11.8035755     	12.023798      	11.363314      	12.202671      	11.886021      	11.859248      	11.508439      	11.612904      	10.981091      	10.907516      	11.083987      	11.6673565     	13.625917      	14.795543      	14.859934      	14.832498      	14.815419      	15.170519      	15.061433      	14.933011      	14.963945      	14.910346      	14.904891      	15.139727      	14.741738      	15.112526      	15.250947      	15.083726      	14.9972105     	15.275396      	15.021841      	15.21642       	15.221784      	15.082746      	15.436848      	15.21481       	12.58135       	11.895544      	11.960476      	11.480329      	11.184377      	11.405515      	12.23577       	11.330212      	11.294465      	11.448572      	
14.442098      	14.514397      	14.587204      	14.70207       	14.675617      	14.540228      	14.532975      	14.47223       	14.769643      	14.819977      	14.764331      	14.846761      	14.741946      	14.519342      	14.736752      	14.573325      	14.857041      	14.660167      	14.544071      	14.773121      	14.977216      	14.767146      	14.773419      	15.023643      	15.055378      	16.167358      	13.490668      	12.337227      	11.759748      	11.320112      	10.855537      	11.312729      	11.182695      	11.387063      	11.326199      	11.347883      	11.418073      	11.2712965     	11.319095      	11.428681      	11.586545      	11.338511      	11.344219      	11.329595      	11.240557      	11.428814      	11.458653      	11.120846      	11.528566      	11.029332      	11.55576       	11.348137      	11.164917      	11.5961275     	11.369602      	11.477939      	11.24585       	11.246062      	10.816905      	11.660504      	11.221888      	11.07573       	10.998035      	11.284109      	11.016239      	11.019538      	12.822018      	14.614393      	14.817017      	14.631782      	14.848994      	14.620186      	14.938583      	14.599561      	14.732918      	14.680234      	15.114804      	14.771606      	14.778086      	14.907411      	14.916241      	14.699685      	14.978817      	14.894131      	14.985653      	15.120136      	15.164041      	15.073357      	15.286043      	15.446399      	13.226397      	12.449392      	11.825834      	11.586078      	11.055312      	10.889796      	11.196363      	11.85281       	12.172319      	12.080795      	
14.742575      	15.128285      	14.545257      	14.641429      	14.6306505     	14.374163      	14.603972      	14.4102        	14.6422615     	14.274347      	14.400142      	14.677044      	14.537603      	14.680001      	14.5427        	14.800115      	14.760932      	14.577131      	14.750648      	14.522066      	14.489502      	14.8837595     	14.471465      	15.367935      	15.231609      	15.819149      	14.1291685     	12.625653      	11.880679      	11.188241      	11.094955      	10.963653      	11.366273      	11.142788      	11.514087      	11.431471      	11.354904      	11.48941       	11.114247      	11.470402      	11.128342      	11.514548      	11.631104      	11.427503      	11.407774      	11.207353      	11.346911      	11.321612      	11.442238      	11.384756      	11.530184      	11.34303       	11.465266      	11.287734      	11.649807      	11.289861      	11.335326      	11.151617      	12.120018      	11.349332      	11.376429      	11.279727      	10.91338       	10.977479      	11.255719      	11.263041      	12.82316       	14.570006      	14.630918      	14.640917      	14.713558      	14.693889      	15.062774      	14.68386       	14.637992      	14.7971        	14.692501      	14.584752      	14.7269745     	14.7284775     	14.533073      	14.720935      	14.559484      	15.054563      	14.724511      	15.109083      	14.6195755     	14.781693      	14.6860895     	15.557872      	13.832124      	12.137441      	11.474584      	11.786181      	11.279962      	11.255072      	11.231051      	11.653709      	11.450386      	10.959998      	
11.189709      	11.828213      	12.700283      	14.273699      	14.622935      	14.715052      	14.673114      	14.4872675     	15.005853      	14.593628      	14.801801      	14.5247345     	14.719857      	14.710579      	14.740756      	14.647233      	14.963267      	14.716448      	14.792544      	14.77919       	14.772445      	14.275523      	14.76021       	15.047546      	15.078581      	15.554825      	15.2623005     	12.511172      	11.866104      	11.15422       	11.096169      	10.969802      	11.211711      	11.268623      	11.208111      	12.323559      	11.690706      	11.258533      	11.122437      	11.305482      	11.371554      	11.251724      	11.503114      	11.51055       	11.35145       	11.215262      	11.444731      	11.322355      	11.370268      	11.3442335     	11.238733      	11.564223      	11.577287      	11.579196      	11.44453       	11.800889      	11.511689      	12.532748      	11.67454       	10.957416      	11.421435      	11.329815      	11.1796255     	10.832294      	11.391791      	11.172005      	12.873771      	14.487168      	14.878419      	14.666999      	14.508952      	14.928054      	14.505236      	14.716611      	14.889224      	14.725604      	14.563379      	14.501244      	14.649157      	14.643003      	14.613992      	14.845276      	14.725712      	14.645725      	14.915844      	14.648899      	14.912089      	14.750172      	14.6448        	15.341518      	14.903491      	12.753139      	11.967921      	12.107305      	11.302915      	11.157886      	11.445745      	11.500351      	11.416664      	11.78976       	
10.646908      	11.04071       	11.313708      	12.588096      	14.527974      	14.754267      	14.846575      	14.857265      	14.872072      	14.855151      	14.901766      	14.833284      	15.069206      	14.929068      	14.91132       	15.134436      	14.812116      	14.976183      	15.102731      	14.877426      	14.922517      	14.853995      	15.083089      	15.1391325     	15.260638      	15.446433      	15.677934      	13.262423      	12.183122      	11.992487      	11.765216      	11.486926      	11.092693      	11.315092      	11.510974      	11.48563       	11.530824      	11.4802265     	11.251796      	11.675224      	11.35497       	11.553146      	11.370814      	11.365553      	11.36689       	11.487319      	11.4455185     	11.36256       	11.475804      	11.275867      	11.380853      	11.547475      	11.682145      	11.61882       	11.462199      	11.535289      	11.387961      	11.51286       	11.640977      	11.256841      	11.551616      	11.587607      	11.473836      	10.913961      	11.317578      	11.269053      	12.408812      	14.124557      	14.860229      	14.573356      	14.622392      	14.670929      	14.820044      	14.819815      	14.764813      	14.713025      	14.85641       	14.774885      	14.7979145     	14.641725      	14.883575      	14.919432      	14.823499      	14.690998      	14.80278       	14.681764      	14.594269      	14.756924      	14.471768      	14.60389       	15.811498      	13.017323      	12.117209      	11.5089445     	11.168548      	11.106227      	11.375878      	11.724161      	11.859826      	12.038347      	
10.6368475     	10.810607      	10.765425      	12.0491        	14.439439      	14.303228      	14.568397      	14.817783      	14.778664      	14.390928      	14.869934      	14.666603      	14.084172      	14.641329      	14.630931      	14.82448       	14.625467      	14.8207445     	14.354761      	14.660535      	14.844234      	14.571442      	14.748919      	14.675029      	15.143491      	14.907167      	16.149542      	14.328964      	12.817841      	12.171081      	11.937662      	10.86101       	11.1123495     	11.422908      	10.954404      	11.354549      	11.386006      	11.336846      	11.082942      	11.460902      	11.326981      	11.158729      	11.322479      	11.163811      	11.409305      	11.159342      	11.437484      	11.320397      	11.165153      	11.311377      	11.211645      	11.154403      	11.477826      	11.496335      	11.271205      	11.189851      	11.194879      	11.320731      	11.194129      	11.1624975     	10.708015      	11.116388      	11.102142      	10.964642      	10.8008585     	10.737016      	10.847117      	13.481256      	14.439002      	14.759958      	14.741339      	14.671727      	14.727734      	14.497936      	14.870494      	14.596826      	14.909857      	14.7274885     	14.807266      	14.959782      	14.826034      	14.728679      	14.792164      	14.589645      	14.510183      	14.690199      	14.60486       	14.51428       	14.653194      	14.657735      	15.941089      	12.783648      	11.583507      	11.7441845     	11.350937      	11.489669      	11.396793      	11.732277      	11.94514       	11.528248      	
10.656557      	10.8309765     	10.875768      	11.518034      	13.700346      	14.257945      	14.248461      	14.357745      	14.30265       	14.482349      	14.470708      	14.062688      	14.555848      	14.421914      	14.418701      	14.41057       	15.13431       	14.841286      	14.140035      	14.8403425     	14.286153      	14.889434      	14.5953045     	14.754674      	14.717003      	14.7063465     	15.183556      	15.181245      	13.292932      	11.966323      	11.576337      	11.043135      	11.470332      	11.000003      	11.233922      	11.403925      	11.457571      	11.602193      	11.175215      	11.273058      	11.254747      	11.415938      	11.255521      	11.341637      	11.274368      	11.171842      	11.320946      	11.234837      	11.27851       	11.295396      	11.130514      	11.453338      	11.0042305     	11.408404      	11.181031      	11.256441      	11.346729      	11.395863      	11.39449       	11.117887      	11.616483      	10.854332      	11.520264      	10.772007      	10.749113      	10.690437      	10.6983185     	12.144303      	14.446305      	14.866096      	14.787379      	14.640607      	14.784986      	14.995835      	14.782006      	14.664871      	15.281273      	14.841077      	14.67688       	14.844635      	14.945909      	14.952592      	15.047176      	15.026319      	14.800951      	15.187096      	14.835202      	14.914226      	15.090296      	14.955898      	15.807706      	13.9416065     	12.536713      	11.950558      	11.338989      	11.157075      	11.3082075     	11.415317      	11.524891      	11.451882      	
10.5947695     	11.384431      	11.618536      	11.657252      	13.480737      	14.039751      	14.210742      	14.678685      	14.39785       	14.770368      	14.427335      	14.551764      	15.391501      	15.143796      	14.497368      	15.462762      	15.380384      	15.048468      	14.048098      	14.624876      	14.719233      	14.868183      	14.551176      	14.614725      	14.549764      	14.706143      	14.500354      	15.78482       	13.229465      	11.710411      	11.286547      	11.026288      	10.998868      	11.250268      	11.21604       	11.308129      	11.412453      	11.653731      	11.282703      	11.290264      	11.537205      	11.260168      	11.181078      	11.008088      	11.2293625     	11.130309      	11.226979      	11.201572      	11.074421      	11.268081      	11.039243      	11.306362      	11.1277075     	11.007084      	11.38063       	11.182741      	11.192633      	11.294971      	11.422245      	11.073012      	11.192025      	11.166799      	11.069373      	10.901021      	10.92115       	10.843414      	10.820826      	11.807734      	13.847645      	14.497247      	14.456859      	14.437206      	14.475805      	14.235416      	14.669693      	15.0034275     	14.547104      	14.574824      	14.755566      	14.748426      	14.843428      	14.531834      	14.309943      	14.933572      	14.788247      	14.781744      	14.904988      	14.7736225     	14.513448      	14.7210865     	14.744994      	14.692687      	12.34772       	12.151776      	11.806865      	11.547341      	11.36036       	11.638529      	11.791318      	11.739138      	
10.963104      	11.172674      	11.014366      	11.400373      	13.26994       	14.720474      	14.144494      	14.353593      	14.61637       	14.853416      	14.758078      	14.719431      	14.7078495     	14.672177      	14.354357      	15.013917      	14.680356      	15.076525      	14.557237      	14.465112      	14.917501      	14.7531        	14.90812       	14.52511       	14.935822      	14.536385      	15.143097      	15.737351      	13.362894      	12.232588      	12.2518        	11.109486      	11.087946      	11.117783      	11.21336       	11.397737      	11.49061       	11.239188      	11.345699      	11.265871      	11.349315      	11.46375       	11.168068      	11.123187      	11.322391      	11.161271      	11.503887      	11.318155      	11.249284      	11.414598      	11.182693      	11.010625      	11.413306      	11.162066      	11.265265      	11.272061      	11.255129      	11.187692      	11.341967      	11.406711      	11.32153       	11.380487      	11.06629       	11.050258      	11.298083      	10.914017      	10.790956      	11.57274       	13.427297      	14.406055      	14.485965      	14.495354      	14.683744      	14.801248      	14.684015      	14.529937      	14.440202      	14.478669      	14.566453      	14.641686      	14.809559      	14.548243      	14.65387       	14.814328      	14.820085      	14.769183      	14.859403      	14.726837      	14.761334      	14.651376      	15.211282      	15.861517      	13.089989      	12.202754      	11.961473      	11.453175      	11.347486      	11.794762      	11.849689      	11.496383      	
11.504172      	12.0205145     	11.547475      	11.527524      	12.757737      	14.721398      	14.539088      	14.863193      	14.931545      	15.13399       	15.164392      	15.078708      	15.2792425     	15.681728      	15.659085      	14.7414875     	14.663839      	15.2356615     	15.181486      	15.229088      	15.178493      	14.933262      	14.727066      	14.981912      	15.336107      	15.070487      	15.483812      	16.446758      	15.209622      	12.818603      	12.260858      	11.8089285     	10.965233      	11.333389      	11.533789      	11.427277      	11.708716      	11.451269      	11.3987        	11.3325615     	11.512338      	11.460736      	11.171256      	11.369868      	11.33275       	11.265877      	11.621378      	11.464991      	11.337027      	11.294679      	11.450405      	11.528157      	11.341682      	11.293262      	11.846091      	11.414471      	11.334988      	11.64446       	11.581642      	11.591983      	11.367521      	11.634745      	11.485089      	11.457939      	11.497357      	11.592389      	11.482769      	12.042977      	13.366202      	14.307578      	14.736114      	14.547288      	14.919124      	14.667966      	14.897955      	14.622289      	14.8487835     	14.471934      	14.576727      	14.873787      	14.719865      	15.122527      	14.288279      	14.706514      	15.004644      	14.850316      	14.915833      	15.015357      	14.93662       	14.975401      	15.002345      	16.200401      	13.6007595     	12.689697      	11.938116      	11.4118595     	11.2488575     	11.61127       	11.569689      	11.5951395     	
11.422166      	11.013999      	11.031746      	11.277391      	12.257553      	14.141672      	14.547399      	14.863196      	14.683984      	15.309451      	14.6467905     	14.851316      	14.950842      	14.874279      	14.979335      	15.189083      	14.670192      	15.012694      	14.831674      	14.795711      	14.85607       	14.775122      	14.913775      	15.070055      	15.064433      	14.537017      	15.020397      	15.508255      	14.573842      	12.870922      	11.834142      	11.424022      	10.903734      	11.140628      	11.531699      	11.815339      	11.3974495     	11.171754      	11.851621      	11.694188      	11.464705      	11.023985      	11.232248      	11.210993      	11.231424      	11.116707      	11.068894      	11.408322      	10.912132      	11.200578      	11.440951      	11.329008      	11.157931      	11.145409      	11.053942      	11.327877      	11.9266205     	11.477992      	11.318354      	11.834922      	11.371892      	10.768224      	10.949997      	11.252863      	10.686069      	10.997333      	10.980833      	11.294975      	12.7878475     	14.684801      	14.857464      	14.688374      	14.637216      	15.082195      	14.568032      	14.804674      	14.927782      	15.210513      	15.016839      	15.139754      	14.934828      	15.054036      	15.045437      	14.916951      	15.04667       	15.152415      	15.1795435     	14.940401      	15.076293      	15.148117      	14.907655      	15.774912      	14.295808      	12.394763      	11.842427      	11.457841      	11.326871      	11.613996      	11.660298      	11.326513      	
11.182715      	11.094928      	11.245042      	10.973039      	11.787463      	13.340138      	14.742738      	14.548027      	14.914329      	14.719656      	15.006749      	14.940189      	15.030003      	14.5847435     	14.747704      	14.834352      	14.856412      	14.958331      	15.0748205     	14.690698      	14.246925      	14.985635      	14.867887      	15.040421      	15.166864      	14.71614       	14.910021      	15.399132      	15.820056      	12.68578       	11.723359      	11.410881      	11.102599      	11.129254      	11.457104      	11.290429      	11.396459      	12.098731      	12.163292      	11.597655      	10.778863      	11.228779      	11.378254      	11.307877      	11.296888      	11.202173      	11.738287      	11.259708      	11.233417      	10.9990225     	11.478742      	11.278086      	11.119859      	11.228199      	11.518895      	11.350187      	11.294153      	11.382598      	11.364088      	11.328575      	11.509368      	11.322465      	11.317925      	11.381195      	11.2585335     	10.830535      	10.835836      	10.836271      	11.944694      	14.075244      	14.718007      	14.62627       	14.77896       	14.80693       	14.749385      	14.966843      	14.571412      	15.050015      	14.868784      	14.669307      	15.038614      	15.139425      	14.889216      	14.632078      	14.816342      	14.900293      	14.789647      	14.826665      	14.595977      	14.90159       	14.856746      	15.861778      	14.734801      	12.449908      	12.06365       	11.948388      	11.918418      	11.73373       	11.381189      	11.679742      	
11.278094      	10.876037      	10.893763      	10.967692      	11.181336      	12.91458       	14.764886      	14.755298      	14.598874      	14.770357      	14.968448      	14.812334      	14.590977      	14.513497      	14.900183      	14.69422       	15.2635145     	14.754228      	14.853211      	14.939777      	14.582617      	14.956889      	14.492507      	14.82308       	14.861163      	14.622309      	14.946501      	14.816463      	16.130093      	13.197206      	11.999239      	11.650946      	11.066509      	11.48703       	11.242999      	11.336504      	11.414843      	11.238125      	11.247226      	11.620392      	11.378171      	11.355272      	11.418736      	11.365307      	11.503848      	11.2377        	11.477185      	11.267036      	11.225517      	11.409169      	11.348389      	11.02738       	11.252646      	11.211027      	11.332349      	11.018168      	11.3019905     	11.337264      	11.4414835     	11.400293      	11.361343      	11.36694       	11.701409      	11.338897      	10.880992      	10.704922      	10.681522      	10.71612       	11.250502      	13.765048      	14.586127      	14.597385      	14.689054      	14.702175      	14.668536      	15.087146      	14.545836      	14.68688       	14.7383795     	14.881776      	15.014457      	15.0573        	14.765199      	14.901124      	14.884823      	14.796195      	14.945219      	14.762966      	14.881699      	14.9768505     	14.981563      	15.090222      	14.890241      	13.426393      	13.566433      	13.419479      	12.589022      	11.542469      	11.953728      	12.013512      	
11.169153      	11.647776      	11.080791      	11.161526      	11.457082      	12.6994505     	14.46829       	14.484212      	14.592154      	14.650624      	14.704793      	14.619229      	14.688666      	14.5372305     	14.521082      	15.959845      	14.804959      	14.16099       	14.886566      	14.874785      	14.720403      	14.945672      	14.854031      	14.490071      	14.911776      	14.40669       	14.969859      	14.879007      	15.994492      	14.233415      	12.400147      	11.415845      	11.241954      	10.986005      	10.84417       	11.549585      	11.255051      	11.2972975     	11.511514      	11.313074      	11.363874      	11.402214      	11.321744      	11.266309      	11.544696      	11.168849      	11.348178      	11.40883       	11.514431      	11.466826      	11.234692      	11.275266      	11.385625      	11.53004       	11.508443      	11.419835      	11.622941      	11.469539      	11.550046      	11.274315      	11.391897      	11.619648      	11.477366      	11.448448      	11.589703      	11.136291      	10.8092575     	11.022103      	11.454478      	12.518515      	14.766429      	14.773055      	14.938975      	14.926687      	15.0081835     	14.870354      	15.086105      	14.984433      	15.082794      	15.048798      	15.137398      	14.874812      	15.031839      	14.826095      	14.940726      	15.074892      	15.2729645     	15.32723       	15.229825      	15.185802      	15.486913      	15.47754       	15.853309      	14.875155      	14.099304      	12.694535      	12.443659      	12.366699      	12.22123       	12.4908695     	
11.444503      	11.372365      	10.967386      	11.574493      	11.219579      	12.388048      	14.244019      	14.719186      	14.633367      	14.757857      	14.886161      	15.003717      	14.791734      	15.091559      	15.891976      	15.472322      	14.674677      	15.177911      	14.947786      	14.9243        	15.011141      	15.036719      	15.041699      	15.087975      	14.710469      	14.954981      	15.027849      	14.940149      	15.603769      	15.27026       	12.333834      	11.705143      	11.414351      	11.507292      	12.100227      	11.425699      	10.971125      	11.692509      	11.2402725     	11.004285      	11.283176      	11.47716       	11.146555      	11.466862      	11.423528      	11.020792      	11.286181      	11.210443      	11.094985      	11.138499      	11.127314      	11.266572      	11.224406      	10.957139      	11.294107      	11.103121      	11.149503      	11.311926      	11.316184      	11.419698      	11.352333      	11.350379      	11.351868      	11.582882      	10.947116      	11.959335      	11.293521      	11.063272      	11.062224      	12.527671      	14.288909      	14.838432      	14.660376      	14.867344      	14.763815      	14.811486      	14.678465      	14.606336      	14.749833      	15.161601      	14.726249      	14.866295      	14.962252      	15.002314      	14.84847       	15.173186      	14.948303      	14.9637        	14.854853      	14.734291      	14.851294      	14.768984      	14.890786      	15.395515      	15.452466      	13.983292      	13.542159      	13.478466      	13.264058      	13.410772      	
11.142054      	11.074763      	10.987448      	10.874765      	11.07967       	11.226564      	13.5627775     	14.549267      	14.607991      	14.501406      	14.622961      	14.760811      	14.632914      	14.745166      	14.91124       	14.740931      	14.727074      	14.694643      	14.648915      	14.950338      	14.604761      	14.746906      	14.838477      	14.825342      	14.654969      	14.597171      	14.623498      	14.632195      	14.805359      	16.094305      	13.164267      	11.943082      	11.524125      	10.812231      	10.931549      	11.209751      	11.116133      	11.200261      	11.456405      	11.388145      	11.503801      	11.4982        	11.312906      	11.718616      	11.353074      	11.3624325     	11.347885      	11.397154      	11.24506       	11.529486      	11.196882      	11.221706      	11.439425      	11.309199      	11.499663      	11.556863      	11.257988      	10.980464      	11.465576      	11.538047      	11.403424      	11.640284      	11.473583      	11.458501      	11.550674      	11.387781      	11.232188      	11.049459      	11.553323      	12.031095      	13.785131      	14.684326      	14.598278      	14.527366      	14.603263      	14.986482      	14.774238      	15.286072      	14.835341      	14.593466      	14.682619      	14.85857       	14.829578      	14.607596      	14.725667      	14.740781      	14.7076025     	14.694093      	14.925447      	14.74437       	14.728251      	14.762721      	14.627904      	14.805662      	15.052966      	15.2534895     	14.818391      	14.554925      	14.677145      	14.704542      	
11.207547      	11.125364      	10.934376      	11.329769      	11.310824      	11.503857      	12.518625      	14.571655      	14.557195      	14.533511      	14.635394      	14.738319      	14.927001      	14.835375      	14.880703      	14.430719      	14.628999      	14.878736      	14.623929      	14.81341       	14.780257      	14.791207      	14.653958      	14.499411      	14.95358       	14.86753       	14.677203      	14.822891      	14.9748335     	15.787926      	13.761302      	12.5149975     	12.07034       	11.090519      	10.723687      	10.899224      	11.221046      	11.095405      	11.251946      	11.221481      	11.211435      	11.098861      	11.01981       	11.107155      	10.765937      	11.052847      	11.241936      	11.111446      	11.240073      	11.063084      	11.298102      	11.140997      	11.318313      	11.197749      	10.926303      	11.300855      	11.148277      	11.354815      	11.456206      	11.251534      	11.457878      	11.388095      	11.334245      	11.207286      	11.119398      	11.46108       	10.907803      	10.723733      	10.997911      	11.477515      	13.186807      	14.590227      	14.333441      	14.39984       	14.5516        	14.532919      	14.486538      	14.623763      	14.444342      	14.785173      	14.617374      	14.686069      	14.720741      	14.661161      	14.435362      	14.635097      	14.475778      	14.290178      	14.595778      	14.530114      	14.856269      	14.699253      	14.798224      	14.95671       	14.866847      	15.167776      	15.136201      	14.6775875     	14.422913      	14.486811      	
11.38625       	11.231552      	11.429329      	11.0152645     	11.135916      	11.281831      	11.761019      	14.213037      	14.6211605     	14.321618      	14.283918      	14.376517      	14.663519      	14.593682      	14.251929      	14.76093       	14.647173      	14.61558       	14.418473      	14.485783      	14.461329      	14.37323       	14.273559      	14.805717      	14.350905      	14.287454      	14.378031      	14.117004      	14.467293      	15.100135      	14.621822      	12.900967      	11.584304      	11.073218      	11.10338       	11.354887      	11.227267      	11.109417      	11.279971      	10.866818      	11.387638      	11.456774      	11.434341      	11.313021      	11.153091      	11.443857      	11.354625      	11.256846      	11.393651      	11.262845      	11.263533      	11.429664      	11.239542      	11.592462      	11.123965      	11.301638      	11.257499      	11.35468       	11.318293      	11.173075      	11.624286      	11.483782      	11.318345      	11.434466      	11.175814      	11.092829      	10.886403      	10.739862      	10.55145       	11.086485      	12.7726755     	14.448247      	14.472823      	14.882533      	14.410368      	14.719495      	15.041507      	14.899434      	14.749024      	14.766168      	15.115279      	14.663415      	14.81569       	14.849563      	14.697415      	14.75829       	14.693302      	14.901644      	14.742782      	14.824315      	15.080513      	14.791978      	14.50308       	14.787576      	15.120396      	15.1580715     	15.015036      	15.205426      	14.974574      	14.44948       	
11.299308      	11.323742      	11.281313      	10.987523      	11.11996       	10.964736      	11.922134      	13.4374275     	14.383143      	14.123068      	14.128181      	14.652507      	14.656571      	14.407472      	14.577219      	14.293329      	14.451786      	14.022491      	14.373978      	14.5814705     	14.378076      	14.351537      	14.327374      	14.400967      	14.334777      	14.031077      	14.554094      	13.960812      	14.199297      	15.148621      	14.098664      	12.206954      	11.871961      	11.417748      	11.09002       	11.070413      	11.252092      	11.317646      	11.396657      	11.474156      	11.33157       	11.406873      	11.29444       	11.222008      	11.177428      	11.243869      	11.203637      	11.263251      	11.332858      	11.450379      	11.229406      	11.300271      	11.537511      	11.3381195     	11.669602      	11.102352      	11.171844      	11.418312      	11.319048      	11.762491      	11.444566      	11.370413      	11.193872      	12.047103      	11.68021       	11.34239       	11.1144495     	11.107308      	10.649859      	10.75733       	11.89401       	14.123389      	14.922747      	14.701956      	14.623824      	14.730379      	14.855625      	14.913734      	14.704279      	14.790437      	14.921377      	14.967695      	14.960563      	14.53486       	14.9031105     	14.745708      	14.657078      	14.919547      	14.830968      	14.814691      	15.394535      	15.207136      	14.357952      	14.596177      	14.781116      	15.151263      	15.109449      	15.293078      	14.970714      	14.72858       	
11.075743      	11.240954      	11.063945      	10.739909      	10.841815      	11.108662      	11.613174      	12.889652      	14.445338      	14.443663      	14.517027      	14.496439      	14.470998      	14.559287      	14.464569      	14.61775       	14.562159      	14.617585      	14.588572      	14.740896      	14.64107       	14.405722      	14.609336      	14.447535      	14.376389      	14.34231       	14.447433      	14.502622      	14.341196      	14.964379      	15.080037      	12.878455      	12.135074      	11.716183      	11.235376      	10.92662       	11.358143      	11.418774      	11.437177      	11.490821      	11.342559      	11.36131       	11.21585       	11.504582      	11.322087      	11.1613655     	11.315318      	10.949573      	11.417733      	11.09726       	11.27423       	11.356741      	11.410253      	11.05028       	11.330729      	11.415072      	11.243786      	11.461932      	11.287277      	11.120626      	11.676764      	11.48098       	11.3774605     	11.1405525     	11.088103      	10.936372      	11.686244      	11.728315      	11.119329      	11.310791      	12.020078      	13.702851      	14.84226       	14.668334      	15.045788      	14.71365       	14.971846      	15.212322      	14.72555       	14.946364      	14.868107      	14.578406      	14.770538      	14.860158      	14.906725      	14.976399      	15.170995      	15.026754      	15.10564       	16.69341       	15.233511      	14.596905      	14.48533       	14.363829      	15.140145      	14.933316      	15.178605      	15.382375      	15.104983      	14.606632      	
11.337677      	11.060862      	11.084353      	10.907202      	10.768502      	10.942564      	10.7239895     	12.91147       	14.391746      	14.307937      	14.669123      	14.462366      	14.378367      	14.4809885     	14.654037      	14.717981      	14.3822        	14.672915      	14.600558      	14.363166      	14.311868      	14.748037      	14.519316      	14.628621      	14.50154       	14.611277      	14.680818      	14.476075      	14.399573      	14.646119      	15.807051      	13.218341      	12.342851      	11.808575      	11.190048      	10.85986       	11.324528      	11.304494      	11.429959      	11.561087      	11.125058      	11.347182      	11.329566      	11.304176      	11.3705635     	11.402803      	11.171375      	11.557191      	11.412978      	11.235133      	11.301512      	11.352318      	11.633062      	11.37646       	11.541348      	11.644057      	11.524454      	11.1531515     	11.225097      	11.504188      	11.21994       	11.712752      	11.740778      	11.811039      	11.656256      	12.042492      	12.75795       	11.908622      	11.514512      	12.520507      	12.869116      	14.310882      	14.729751      	14.667527      	14.605523      	14.893882      	14.755814      	14.718288      	14.679689      	14.847134      	14.844205      	14.577138      	14.421734      	14.603827      	14.752245      	14.7082        	14.896919      	14.739041      	14.912224      	14.801548      	14.989106      	15.092589      	14.841765      	14.952333      	14.948927      	14.956407      	14.879508      	15.139012      	14.975705      	14.811778      	
11.360628      	11.115814      	11.191619      	11.390895      	11.157045      	11.113844      	11.182856      	12.050253      	14.347364      	14.434145      	14.625865      	14.543025      	14.749363      	14.578061      	14.558301      	14.74533       	14.635439      	14.895398      	14.889537      	14.623755      	14.61517       	14.608029      	14.55599       	14.829819      	14.93609       	14.628548      	14.425563      	14.663542      	14.532446      	14.260864      	15.438613      	14.116186      	12.101606      	11.445499      	11.320022      	11.0764475     	11.030648      	11.551307      	11.481975      	11.451992      	11.637236      	11.48842       	11.547978      	11.406763      	11.542822      	11.46011       	11.461181      	11.553685      	11.296082      	11.4372015     	11.298075      	11.734649      	11.585078      	11.165198      	10.975371      	11.615822      	11.4741335     	11.961756      	11.374609      	11.8800955     	12.577627      	12.169511      	12.536686      	12.32491       	12.114166      	12.784514      	12.8686285     	12.855543      	13.683814      	13.224159      	14.821324      	14.83917       	14.642885      	14.640895      	14.475863      	14.664474      	14.799393      	14.71321       	14.551254      	14.857696      	14.672123      	14.781733      	14.732549      	14.675512      	14.775253      	14.813821      	14.888965      	14.707993      	14.753179      	14.968059      	14.830976      	14.782602      	14.960782      	14.820466      	14.854711      	15.280484      	15.008338      	15.243037      	15.160554      	14.602088      	
11.148422      	11.335383      	11.102519      	11.437925      	10.588826      	11.353885      	11.283891      	11.96343       	13.758813      	14.529724      	14.567944      	14.640196      	14.447816      	14.386569      	14.497357      	14.842952      	14.666334      	14.923747      	14.515118      	14.665352      	14.794731      	14.822333      	14.535196      	14.672973      	14.701063      	14.629353      	14.948714      	14.682264      	14.937891      	14.759372      	15.3650055     	14.790636      	13.144105      	12.070549      	11.409026      	11.042357      	11.16019       	11.171932      	11.211505      	11.540242      	11.294486      	11.319285      	11.490737      	11.640943      	11.594907      	11.422904      	11.282937      	11.106491      	11.50213       	11.197156      	11.607609      	11.676663      	11.224045      	11.8081        	11.520755      	11.686227      	11.427211      	12.059964      	11.783612      	12.503983      	12.274998      	11.875354      	13.215602      	12.670792      	13.727198      	14.45655       	14.626093      	14.523958      	14.627943      	14.797518      	14.514636      	14.499303      	14.495333      	14.440583      	14.788732      	14.65152       	14.4918785     	14.486808      	14.365599      	14.609521      	14.483625      	14.673197      	14.748925      	14.612687      	14.553923      	14.482693      	14.658685      	14.483216      	14.304091      	14.854838      	14.668353      	14.605876      	14.612708      	14.641441      	14.565266      	14.689113      	14.892279      	15.056689      	14.464806      	14.322313      	
11.28759       	11.273806      	11.300153      	11.156444      	10.905098      	10.923296      	11.18083       	11.02365       	13.4252615     	14.339935      	14.286094      	14.451106      	14.47935       	14.990725      	14.38295       	14.520965      	14.523408      	14.611652      	14.50624       	14.353185      	14.446899      	14.748643      	14.676236      	14.727906      	14.65572       	14.427692      	14.337638      	15.287595      	14.526171      	14.462889      	14.232041      	15.570943      	12.545854      	11.7786        	11.230223      	10.945961      	10.793609      	11.120482      	11.102521      	11.2262945     	11.153809      	11.54175       	11.117771      	11.263012      	11.17973       	11.472136      	11.386149      	11.582756      	11.454437      	11.684646      	11.900069      	11.331973      	11.789073      	12.38819       	12.096521      	12.321291      	12.357441      	12.703354      	12.951435      	13.6628065     	13.742355      	14.820531      	14.874099      	14.626307      	14.476684      	14.4846325     	14.568946      	14.510695      	14.433991      	14.498001      	14.307099      	14.885095      	14.471834      	14.82022       	14.599412      	14.799959      	14.704083      	14.680352      	14.7544775     	14.9011135     	14.699726      	14.522801      	14.977072      	14.971773      	14.873145      	14.649535      	15.101153      	14.809486      	14.827527      	14.965152      	14.857927      	14.848486      	14.86448       	15.000348      	15.159474      	15.3307        	15.345247      	15.557373      	15.6017065     	15.029382      	
11.101739      	11.28657       	11.232655      	11.120401      	10.854229      	11.228456      	10.843296      	10.801067      	12.849932      	14.216986      	14.441482      	14.528231      	14.757738      	14.988475      	14.574071      	14.5456505     	14.591123      	14.561059      	14.661794      	14.460825      	14.816418      	14.572181      	14.923052      	14.580372      	14.738167      	14.9052925     	14.717114      	14.700922      	14.951916      	14.880066      	15.277768      	16.273323      	13.145105      	12.306636      	12.110454      	11.625686      	10.928859      	11.108487      	11.375919      	11.219741      	11.305103      	11.589224      	11.900531      	11.418214      	11.179891      	11.386539      	11.876987      	12.029654      	11.790383      	11.962184      	11.769631      	12.847032      	12.826999      	12.746123      	13.004944      	13.6353655     	14.232671      	14.509064      	14.559855      	14.417245      	14.581408      	14.560703      	14.443081      	14.4714575     	14.517315      	14.411416      	14.614487      	14.748261      	14.305469      	14.418977      	14.501673      	14.640756      	14.670756      	14.214746      	14.584684      	14.942237      	14.535857      	14.667187      	14.684003      	14.556332      	14.419571      	14.682672      	14.826198      	14.9136505     	14.651569      	14.2322445     	14.467058      	14.641059      	14.78901       	14.648912      	14.5621605     	14.761922      	14.438039      	14.740849      	14.575537      	14.788262      	14.93838       	14.957011      	14.952484      	15.170981      	
11.2879505     	11.033338      	11.374627      	11.271057      	10.689075      	10.986615      	10.788787      	11.043815      	12.709871      	14.356353      	14.49348       	14.1790085     	14.85451       	14.295223      	14.549204      	14.74692       	14.114881      	14.5842085     	14.285243      	14.617775      	14.624968      	14.5647955     	14.524535      	14.4112        	14.370968      	14.67624       	14.493186      	14.646734      	14.555542      	14.514352      	14.813452      	14.845736      	14.734082      	12.796962      	11.820712      	11.537906      	11.38639       	11.610843      	11.5349655     	11.132166      	11.427699      	11.349785      	11.017282      	12.170831      	11.278611      	11.844383      	11.819804      	12.389974      	12.514349      	13.0736065     	12.2451515     	13.242807      	14.589844      	14.442526      	14.484828      	14.384971      	14.516968      	14.354069      	14.426988      	14.358891      	14.29478       	14.171939      	14.360603      	14.366981      	14.465925      	14.540802      	14.411405      	14.338202      	14.327315      	14.7706785     	14.613721      	14.635763      	14.295178      	14.532238      	14.900809      	14.374732      	14.553392      	14.282586      	14.626202      	14.672354      	14.4823265     	14.423371      	14.685207      	14.842627      	14.675324      	14.497255      	14.654712      	14.669187      	14.752355      	14.484365      	14.863349      	14.803581      	14.585047      	15.267587      	14.516308      	15.690159      	15.24293       	15.19019       	15.304773      	14.624628      	
11.478219      	11.454328      	11.479375      	11.276716      	11.508695      	10.998095      	11.208047      	11.619462      	12.331588      	14.313055      	14.493846      	14.396107      	14.947721      	14.844792      	15.05469       	14.765485      	15.110648      	14.885958      	14.613327      	15.114344      	14.855221      	14.875032      	14.940494      	15.193974      	15.097377      	15.139424      	14.800197      	14.955474      	15.1256895     	14.945828      	15.455695      	15.893731      	14.841869      	12.92212       	12.800311      	12.701547      	11.827592      	12.338507      	12.148857      	11.994778      	12.11615       	12.0549        	12.445611      	12.92584       	11.956904      	12.827653      	13.100553      	13.003259      	14.375004      	14.468248      	14.718847      	14.406383      	14.424058      	14.429843      	14.332767      	14.469639      	14.391546      	14.33195       	14.397733      	14.442792      	14.365922      	14.291981      	14.458517      	14.460469      	14.61727       	14.209558      	14.3991        	14.50639       	14.365809      	14.324824      	14.510808      	15.215124      	14.343408      	14.180161      	14.341619      	14.622548      	14.662443      	14.613856      	14.9258585     	14.655943      	14.395789      	14.641801      	14.521461      	14.562164      	14.705104      	14.703712      	14.657348      	14.826972      	15.043541      	14.320677      	14.64812       	14.947376      	14.897751      	14.45866       	14.723683      	14.989085      	15.011228      	15.134538      	15.024493      	14.803981      	
11.220341      	11.337255      	11.551467      	11.112284      	11.231773      	11.473003      	11.257673      	11.161904      	11.732         	13.58831       	14.73834       	14.580164      	14.384241      	14.422324      	14.654246      	14.831702      	14.670817      	14.8312025     	14.480753      	14.764867      	14.786299      	14.67956       	15.268098      	14.76813       	15.293865      	14.973007      	14.782996      	14.855678      	14.988135      	15.085267      	15.119408      	15.594607      	15.996013      	14.286927      	14.320309      	13.392031      	12.156089      	12.3674345     	12.419213      	12.397033      	11.91124       	12.838731      	12.746503      	13.860596      	13.452525      	14.687578      	14.311687      	14.3089285     	14.401563      	14.437192      	14.422401      	14.376829      	14.418187      	14.403395      	14.311279      	14.4969845     	14.3941345     	14.325259      	14.402075      	14.147517      	14.44527       	14.417725      	14.546778      	14.489559      	14.419598      	14.571406      	14.424183      	14.6835785     	14.59139       	14.369267      	15.000447      	15.113515      	14.010548      	13.877016      	14.598462      	14.461593      	14.538039      	14.662121      	14.815768      	14.609337      	14.944844      	14.718615      	14.7239065     	14.55781       	14.59752       	14.544241      	14.664459      	14.65576       	14.642758      	14.708803      	14.780124      	14.491263      	14.605552      	14.530092      	14.56237       	14.763075      	14.872835      	14.907705      	14.893628      	14.683114      	
11.382752      	11.361668      	11.523584      	11.440605      	11.114312      	11.182832      	11.197885      	11.069869      	11.059339      	12.55985       	14.561639      	14.3145075     	14.471586      	14.572929      	14.236582      	14.560684      	14.451632      	14.839638      	14.412826      	14.702772      	14.407863      	14.392969      	14.418568      	14.387918      	14.642313      	14.545688      	14.472073      	14.449647      	14.794117      	14.257192      	14.431835      	14.960296      	14.798725      	15.372675      	14.912189      	13.816406      	12.985826      	13.320516      	13.453963      	14.650803      	14.284609      	14.582839      	14.423339      	14.676437      	14.498798      	14.371454      	14.624698      	14.303517      	14.247939      	14.462827      	14.461615      	14.531672      	14.22359       	14.512964      	14.278332      	14.284489      	14.4192705     	14.478932      	14.414694      	14.259715      	14.545464      	14.4348755     	14.253225      	14.351545      	14.437062      	14.397858      	14.253138      	14.221549      	14.312697      	14.557498      	14.388098      	14.558496      	14.558053      	14.331076      	14.5254965     	14.939831      	14.594045      	14.7722        	14.759763      	14.718589      	14.558242      	14.662         	14.569888      	14.691194      	14.551101      	14.755245      	14.679813      	14.432334      	14.592887      	14.999623      	14.391651      	15.277628      	15.0201645     	14.505766      	14.446538      	15.432616      	14.570826      	14.326158      	14.793597      	14.864318      	
11.420651      	11.196579      	11.482081      	11.281118      	11.25756       	11.299442      	10.836749      	11.164413      	11.322196      	12.3011675     	13.887138      	14.506         	14.297611      	14.408836      	14.390213      	14.382134      	14.519006      	14.387873      	14.387643      	14.355992      	14.719118      	14.581186      	14.480588      	14.4269        	14.719757      	14.474543      	14.315134      	14.538944      	14.2862015     	14.133177      	14.361976      	14.471         	14.583602      	14.541171      	14.550709      	14.60435       	14.388673      	14.369082      	14.282625      	14.462857      	14.560157      	14.587531      	14.188909      	14.217348      	14.487317      	14.291532      	13.97233       	14.246716      	14.176125      	14.318576      	14.367151      	14.270408      	14.15725       	14.141734      	14.420475      	14.252891      	14.127949      	14.413645      	14.469775      	14.3168545     	14.446313      	14.3513565     	14.526486      	14.343116      	14.289173      	14.318851      	14.364691      	14.702594      	14.31395       	14.519713      	14.372798      	14.626298      	14.489031      	14.528163      	14.38347       	14.209153      	14.36622       	14.46532       	14.2645235     	14.508608      	14.300288      	14.150491      	14.52222       	13.977564      	14.105165      	14.655417      	14.889007      	14.667482      	14.794701      	14.907261      	14.815904      	14.609093      	14.8017025     	14.817611      	14.711732      	14.756424      	14.833839      	15.221304      	14.877831      	14.563847      	
11.410428      	11.463923      	11.289429      	11.29428       	11.089815      	11.087514      	10.966062      	10.991407      	11.109887      	11.408937      	13.783287      	14.650479      	14.563214      	14.377643      	14.272906      	14.775094      	14.3593235     	14.627362      	14.453084      	14.258699      	14.583987      	14.534374      	14.422628      	14.6899185     	14.64817       	14.589043      	14.663893      	14.4531975     	14.486922      	14.494377      	14.699366      	14.367779      	14.57867       	14.518026      	14.713207      	14.7076025     	14.667318      	14.361599      	14.406996      	14.348441      	14.448798      	14.3242235     	14.287645      	14.399608      	14.536085      	14.327534      	14.478794      	14.329048      	14.405378      	14.262617      	14.196019      	14.230084      	14.281325      	14.231284      	14.487625      	14.48137       	14.447448      	14.178708      	14.536666      	14.441458      	14.480527      	14.408233      	14.403325      	14.446254      	14.458373      	14.580308      	14.573869      	14.399073      	14.377759      	14.175403      	14.464621      	14.624177      	14.42561       	14.666992      	14.530173      	14.722035      	14.499253      	14.340407      	14.56247       	14.543268      	14.839524      	14.581153      	14.415679      	14.546381      	14.492266      	14.769242      	14.640717      	14.765417      	14.790136      	14.591687      	14.615873      	14.703724      	14.735168      	14.617093      	14.840705      	14.821131      	15.119749      	15.256526      	15.107107      	15.198017      	
11.518861      	11.310539      	11.527995      	11.4902935     	11.41783       	11.3602295     	11.05672       	11.085735      	11.17848       	11.22397       	13.300595      	14.347686      	14.813168      	14.43617       	14.299103      	14.740818      	14.623768      	14.664607      	14.837858      	14.793907      	14.798318      	14.429737      	14.546062      	14.658466      	14.598697      	14.804644      	14.449692      	14.667577      	14.612378      	14.382396      	14.489613      	14.7760315     	14.643684      	14.4415        	14.620157      	14.298594      	14.732734      	14.614541      	14.39745       	14.647416      	14.281219      	14.659227      	14.103756      	14.445619      	14.439753      	14.430197      	14.2359495     	14.420696      	14.308456      	14.327706      	14.43383       	14.262001      	14.329417      	14.062996      	14.356739      	14.352906      	14.437815      	14.292715      	14.515387      	14.580572      	14.348589      	14.614804      	14.415026      	14.305335      	14.58856       	14.583976      	14.497986      	14.655363      	14.459681      	14.291727      	14.422802      	14.333714      	14.7064295     	14.557556      	14.506935      	14.833258      	14.584497      	14.553369      	14.4901285     	14.69623       	14.555821      	14.713485      	14.60087       	14.605216      	14.885097      	14.680417      	14.598337      	14.620641      	14.610876      	14.567453      	14.648056      	14.775988      	14.762136      	14.890308      	14.946263      	14.9288845     	14.761197      	14.928834      	15.05377       	15.0398655     	
11.197222      	11.284858      	11.206567      	11.199963      	11.209038      	11.175229      	11.15564       	11.024815      	10.874504      	11.426411      	12.395882      	14.197344      	14.699384      	14.518525      	14.638454      	14.502233      	14.50319       	14.555583      	14.540755      	14.424626      	14.475125      	14.346839      	14.525797      	14.581041      	14.500592      	14.457919      	14.378236      	14.506644      	14.358643      	14.47166       	14.706597      	14.570987      	14.161498      	14.384402      	14.253768      	14.422093      	14.3814335     	14.395328      	14.236628      	14.621644      	14.505032      	14.503879      	14.46117       	14.500922      	14.373459      	14.254789      	14.523229      	14.377081      	14.335949      	14.575361      	14.471666      	14.355292      	14.521638      	14.526706      	14.601181      	14.309395      	14.518444      	14.540192      	14.614479      	14.276558      	14.546208      	14.620107      	14.51194       	14.527834      	14.58142       	14.505185      	14.404191      	14.358438      	14.656918      	14.466194      	14.606305      	14.344959      	14.621699      	14.6691        	14.673575      	14.733422      	14.584985      	14.4825945     	14.455624      	14.287894      	14.749019      	14.505456      	14.801446      	14.579595      	14.764276      	14.666058      	14.87555       	14.749785      	14.630368      	14.722914      	14.625061      	14.640469      	14.919369      	14.371175      	14.601232      	14.659231      	14.926077      	14.944734      	14.758166      	14.679912      	
11.431786      	11.396508      	11.2341        	11.617861      	11.435771      	11.597992      	11.176935      	11.435631      	11.266532      	11.036241      	12.000948      	14.293123      	14.275959      	14.628235      	14.329192      	14.560704      	14.546692      	14.53267       	14.598585      	14.286295      	14.588935      	14.388793      	14.659557      	14.452913      	14.427878      	14.600639      	14.328708      	14.372339      	14.362         	14.247318      	14.32739       	14.465776      	14.540801      	14.401712      	14.364011      	14.488277      	14.555203      	14.207095      	14.103914      	14.334346      	14.4609785     	14.353264      	14.450778      	14.393747      	14.224361      	14.140371      	14.269462      	14.334306      	14.23894       	14.436845      	14.3829155     	14.46544       	14.370257      	14.432193      	14.291733      	14.353594      	14.42391       	14.386411      	14.568762      	14.465065      	14.552381      	14.5837        	14.628572      	14.719966      	14.643276      	14.522608      	14.583281      	14.575764      	14.353887      	14.465124      	14.340955      	14.428956      	14.614002      	14.351411      	14.617356      	14.473126      	14.710226      	14.487979      	14.364487      	14.67319       	14.348294      	14.38564       	14.562324      	14.09522       	14.29091       	14.0412445     	14.701248      	14.777452      	14.744917      	14.46718       	14.541603      	14.445764      	14.716908      	14.757176      	14.72007       	14.788144      	14.7653675     	14.609891      	14.961165      	14.892629      	
11.5919        	11.062644      	11.790733      	11.965821      	11.542584      	12.317422      	11.74803       	11.97688       	11.881266      	12.080846      	12.857726      	14.619848      	14.6119995     	14.900448      	14.58444       	14.798133      	14.536274      	14.495992      	14.4736        	14.423243      	14.647233      	14.639051      	14.750201      	14.7990675     	14.535765      	14.447834      	14.673629      	14.498602      	14.594651      	14.739073      	14.625198      	14.494333      	14.540033      	14.65163       	14.611902      	14.398099      	14.845259      	14.602859      	14.312335      	14.440389      	14.488802      	14.72855       	14.678797      	14.63982       	14.626727      	14.681812      	14.672178      	14.477223      	14.646128      	14.598387      	14.517684      	14.386107      	14.72051       	14.497492      	14.53905       	14.384981      	14.534863      	14.59477       	14.633212      	14.673466      	14.701501      	14.875504      	14.581899      	14.399451      	14.479252      	14.546357      	14.522148      	14.735578      	14.448971      	14.765754      	14.880906      	14.733368      	14.940701      	14.743297      	14.75071       	14.776402      	14.434895      	14.79692       	14.665642      	14.670629      	14.646899      	14.653705      	15.000575      	14.569146      	14.812059      	14.581999      	14.5381        	14.668083      	14.912496      	14.876338      	14.6421585     	14.628999      	14.542722      	14.583986      	14.774964      	14.6453905     	14.891876      	14.785151      	14.722118      	14.688107      	
11.897332      	12.100205      	11.832983      	12.492455      	12.192697      	11.99584       	12.935327      	12.329474      	12.830325      	13.045921      	14.257589      	14.498647      	14.477947      	14.357998      	14.45883       	14.366934      	14.371003      	14.486467      	14.322395      	14.515031      	14.466613      	14.340496      	14.497331      	14.628999      	14.4703045     	14.784926      	14.544736      	14.509081      	14.569888      	14.5365715     	14.501329      	14.32118       	14.389649      	14.474161      	14.611338      	14.44873       	14.310184      	14.828562      	14.317689      	14.487309      	14.435546      	14.113694      	14.401588      	14.23908       	14.240763      	14.21367       	14.5508        	14.484453      	14.371645      	14.413892      	14.464959      	14.334736      	14.442095      	14.233434      	14.407382      	14.340901      	14.290426      	14.331228      	14.422754      	14.455616      	14.594648      	14.363662      	14.374531      	14.527184      	14.410939      	14.449163      	14.68311       	14.253026      	14.309395      	14.495631      	14.681773      	14.6328335     	14.6054125     	14.516686      	14.474235      	14.688526      	14.532304      	14.74003       	14.544787      	14.72155       	14.683087      	14.776215      	14.650332      	14.759155      	14.812766      	14.598967      	14.874074      	14.914662      	14.891284      	14.589982      	14.746587      	14.664447      	14.678087      	14.8869295     	14.848488      	15.144014      	14.811917      	14.981048      	15.114268      	15.099955      	
12.254195      	12.722991      	12.315967      	12.479219      	13.158265      	13.172994      	14.024096      	14.355337      	14.457395      	14.748621      	14.507083      	14.488978      	14.532806      	14.45018       	14.579613      	14.536462      	14.357221      	14.721127      	14.514406      	14.469596      	14.525955      	14.779387      	14.644874      	14.4627495     	14.373337      	14.624289      	14.506861      	14.439675      	14.434691      	14.603105      	14.513229      	14.750516      	14.52187       	14.36705       	14.801045      	14.534995      	14.486677      	14.700172      	14.517368      	14.59935       	14.432758      	14.667393      	14.604362      	14.417422      	14.6618595     	14.5111885     	14.284844      	14.50469       	14.521237      	14.64595       	14.524216      	14.52676       	14.593239      	14.54379       	14.311922      	14.640383      	14.41849       	14.464611      	14.459366      	14.43501       	14.283156      	14.5379        	14.546057      	14.38118       	14.514307      	14.609654      	14.616904      	14.502144      	14.494209      	14.795103      	14.561787      	14.630795      	14.542459      	14.440506      	14.709304      	14.62474       	14.7765665     	14.459531      	14.713017      	14.650402      	14.429916      	14.572622      	14.416264      	14.76608       	14.661327      	14.5715475     	14.560829      	14.543287      	14.714564      	14.508908      	14.5119        	14.765893      	14.646922      	14.732922      	14.621333      	14.6647005     	14.733724      	14.633404      	14.658534      	14.788745      	
12.977517      	13.638506      	14.0197735     	14.831882      	14.368032      	14.329807      	14.48716       	14.378755      	14.280866      	14.769485      	14.663423      	14.511414      	14.315146      	14.543627      	14.485794      	14.52782       	14.21536       	14.409601      	14.528763      	14.325585      	14.62963       	14.411659      	14.565275      	14.2782345     	14.385914      	14.470793      	14.643248      	14.4962        	14.6436205     	14.492302      	14.59195       	14.578732      	14.542126      	14.551758      	14.436737      	14.275799      	14.622912      	14.462205      	14.482024      	14.398495      	14.474174      	14.547858      	14.526287      	14.486884      	14.477264      	14.49568       	14.417263      	14.528319      	14.395279      	14.39582       	14.315543      	14.210083      	14.619888      	14.604844      	14.410815      	14.68554       	14.753311      	14.562603      	14.720904      	14.538405      	14.576219      	14.5901785     	14.541519      	14.348544      	14.729539      	14.464513      	14.466891      	14.60924       	14.568248      	14.560019      	14.406852      	14.532693      	14.4579        	14.609542      	14.639117      	14.463986      	14.530914      	14.685383      	14.589643      	14.705515      	14.367506      	14.532335      	14.54849       	14.514559      	14.357288      	14.324341      	14.7014885     	14.579502      	14.522065      	14.685033      	14.293669      	13.969004      	14.739198      	14.480408      	14.734105      	15.054597      	15.046886      	14.931495      	14.874699      	14.811919      	
14.411717      	14.824341      	14.460404      	14.621657      	14.497694      	14.388912      	14.519732      	14.609953      	14.486575      	14.517154      	14.640467      	14.683808      	14.694501      	14.6731205     	14.412556      	14.504561      	14.963169      	14.62429       	14.641209      	14.55065       	14.539728      	14.570338      	14.666106      	14.291076      	15.004586      	14.534619      	14.640292      	14.387728      	14.621764      	14.609693      	14.57264       	14.470586      	14.739328      	14.502821      	14.536447      	14.689288      	14.583203      	14.737885      	14.698938      	14.688011      	14.6216345     	14.420983      	14.863586      	14.769877      	14.405232      	14.47296       	14.482336      	14.504833      	14.43085       	14.570715      	14.730362      	14.417963      	14.410499      	14.555956      	14.470381      	14.693739      	14.623368      	14.513519      	14.4717045     	14.419401      	14.575657      	14.455218      	14.515247      	14.674243      	14.414542      	14.714648      	14.546802      	14.482254      	14.538718      	14.514535      	14.397413      	14.757122      	14.402295      	14.734         	14.67832       	14.490411      	14.764254      	14.464238      	14.666716      	14.59664       	14.624511      	14.755524      	14.521723      	14.258685      	14.613053      	14.303009      	14.461178      	14.618305      	14.776463      	14.713911      	14.577799      	14.473116      	14.861143      	14.814056      	14.689344      	14.804456      	14.624367      	14.823824      	14.88888       	14.827632      	
14.597834      	14.524099      	14.323506      	14.361621      	14.421133      	14.602635      	14.430968      	14.29449       	14.525606      	14.440436      	14.3937845     	14.292408      	14.3500805     	14.657986      	14.536724      	14.4145775     	14.550414      	14.52919       	14.488655      	14.451583      	14.785769      	14.30443       	14.299052      	14.281335      	14.309426      	14.487886      	15.013907      	14.606587      	14.308103      	14.233905      	14.392944      	14.622204      	14.585433      	14.420743      	14.492666      	14.556727      	14.547654      	14.377881      	14.775257      	14.384667      	14.268859      	14.553377      	14.556563      	14.329948      	15.211312      	14.869928      	14.547316      	14.436969      	14.439352      	14.214899      	14.557227      	14.245599      	14.570745      	14.212304      	14.52099       	14.343054      	14.286082      	14.616004      	14.2449465     	14.509004      	14.3181305     	14.379094      	14.380205      	14.454254      	14.279801      	14.403364      	14.239754      	14.223523      	14.500997      	14.428754      	14.275302      	14.3713665     	14.405756      	14.500785      	14.453588      	14.688388      	14.234278      	14.784295      	14.583309      	14.733129      	14.550746      	14.6851845     	14.798112      	14.653087      	14.54709       	14.478895      	14.741124      	14.463216      	14.740688      	14.754687      	14.627273      	14.87695       	14.880024      	14.698644      	14.860742      	15.076204      	15.043078      	14.875297      	14.822239      	15.149351      	
14.288221      	14.291559      	14.271813      	14.695025      	14.597015      	14.76213       	14.426194      	14.344557      	14.729326      	14.453405      	14.427001      	14.408386      	14.582435      	14.456421      	14.512291      	14.496178      	14.690022      	14.657741      	14.601258      	14.744705      	14.473935      	14.467119      	14.422505      	14.461115      	14.206267      	15.278446      	14.85229       	14.51193       	13.810563      	14.763092      	14.643571      	14.643642      	14.825883      	14.844394      	14.723677      	14.718063      	14.769897      	14.754208      	14.739443      	14.630485      	14.455607      	15.004059      	14.744374      	15.241031      	14.697719      	14.104932      	14.582806      	14.507401      	14.90048       	14.765627      	14.629026      	14.508516      	14.5551815     	14.706885      	14.574606      	14.616112      	14.696817      	14.934316      	14.7160015     	14.745734      	14.665582      	14.723418      	14.514199      	14.735248      	14.830856      	14.588575      	14.577097      	14.749173      	14.708859      	14.879561      	14.789155      	14.67357       	14.508497      	14.579584      	14.827134      	14.890382      	14.751397      	14.838106      	14.876206      	14.858356      	14.679551      	14.812426      	14.714298      	14.868975      	14.84241       	15.006674      	14.821564      	14.981632      	15.02682       	15.155969      	14.999737      	14.919748      	14.820398      	15.131161      	14.954672      	14.808698      	14.9783325     	15.102244      	15.8300905     	15.739571      	
14.210614      	14.366797      	14.382067      	14.227791      	14.528363      	14.466933      	14.460908      	14.3767605     	14.315863      	14.300581      	14.541785      	14.441321      	14.579857      	14.37799       	14.443953      	14.541525      	14.484323      	14.346053      	14.721273      	14.761658      	14.682427      	14.481974      	14.568669      	14.633674      	14.631465      	14.531488      	14.627725      	14.35109       	14.599054      	14.40903       	14.437563      	14.660926      	14.468261      	14.647148      	14.602608      	14.597358      	14.558406      	14.625058      	14.709925      	14.675217      	14.933547      	14.9762125     	14.567974      	15.282302      	14.022291      	14.382821      	14.717724      	14.670647      	14.608105      	14.897319      	14.7582855     	14.605337      	14.588156      	14.599794      	14.70345       	14.381395      	14.655544      	14.422301      	14.637283      	14.590935      	14.503366      	14.589495      	14.491021      	14.8958025     	14.623441      	14.557533      	14.477517      	15.020184      	14.516745      	14.667303      	14.639636      	14.691904      	14.606825      	14.567579      	14.691775      	14.852312      	14.714138      	14.791586      	14.605569      	14.587264      	14.793223      	14.683902      	14.780347      	14.8753805     	14.903361      	14.77461       	14.759141      	14.836454      	14.939779      	14.911473      	14.847684      	14.84348       	14.808395      	14.879823      	15.1060095     	15.181465      	15.05602       	15.443468      	15.840584      	14.969806      	
14.569284      	14.1814785     	14.356149      	14.645737      	14.320457      	14.241182      	14.286803      	14.327518      	14.42682       	14.515753      	14.639858      	14.462932      	14.351357      	14.489481      	14.619815      	14.507849      	14.451225      	14.566228      	14.708835      	14.611768      	14.629003      	14.43732       	14.510218      	14.574949      	14.39025       	14.703443      	14.493868      	14.798279      	14.604403      	14.528638      	14.477385      	14.658724      	14.602604      	14.588851      	14.710762      	14.575842      	14.626776      	14.7363615     	14.668101      	14.648941      	14.571249      	14.784152      	14.705361      	14.579308      	14.913592      	14.7612505     	14.479895      	14.704928      	14.682817      	14.724985      	14.7709        	14.625978      	14.712938      	14.67244       	14.7906885     	14.625755      	14.755443      	14.513074      	14.658209      	14.885805      	14.740566      	14.971953      	14.703423      	14.558504      	14.707669      	14.5779295     	14.569007      	14.950144      	14.651083      	14.570185      	14.905299      	14.678722      	14.749704      	14.750419      	14.576754      	14.56474       	14.702782      	14.667277      	14.795061      	14.815481      	14.847915      	14.703729      	14.749335      	14.763761      	14.79721       	14.598422      	14.697801      	14.665488      	15.00027       	14.509077      	14.790758      	15.035745      	14.878881      	14.521535      	14.764957      	15.087576      	14.888815      	15.364393      	15.552442      	14.774647      	
14.46584       	14.419584      	14.277567      	14.533074      	14.63092       	14.539229      	14.737428      	14.521822      	14.515885      	14.32564       	14.8187275     	14.464572      	14.6307955     	14.572953      	14.678101      	14.725267      	14.588622      	14.653703      	14.6519985     	14.706024      	14.5966835     	14.617434      	14.515688      	14.769691      	14.5281725     	14.708535      	14.585595      	14.687447      	14.588428      	14.53032       	14.672488      	14.626947      	14.70222       	14.770256      	14.492613      	14.597786      	14.617069      	14.771595      	14.541148      	14.41185       	14.455981      	14.527984      	14.62091       	14.565907      	14.714216      	14.64865       	14.5178585     	14.650553      	14.707459      	14.733791      	14.878572      	14.55581       	14.506671      	14.540734      	14.655076      	14.765663      	14.495936      	14.684512      	14.74718       	14.782834      	14.690506      	14.632561      	14.884653      	14.576419      	14.396722      	14.570323      	14.743104      	14.933363      	14.783838      	14.520761      	14.769708      	14.785195      	14.575314      	14.787653      	14.6746235     	14.850036      	14.548809      	14.775705      	14.538701      	14.791381      	14.558488      	14.863216      	14.848293      	14.817988      	14.856904      	14.672855      	14.549045      	14.927131      	14.593909      	14.678576      	14.39878       	14.487594      	14.575954      	14.655262      	14.910383      	14.840497      	14.921578      	15.391856      	16.025656      	15.391292      	
14.32811       	14.18597       	14.319226      	14.428836      	14.345637      	14.422368      	14.355537      	14.259052      	14.335414      	14.590538      	14.303611      	14.618591      	14.589265      	14.549335      	14.609868      	14.604768      	14.8903055     	14.587544      	14.529839      	14.658345      	14.458003      	14.612209      	14.627983      	14.618145      	14.514774      	14.531594      	14.66796       	14.586989      	14.782708      	14.493537      	14.536115      	14.531258      	14.513136      	14.547028      	14.600023      	14.550168      	14.63603       	14.816948      	14.939202      	14.660914      	14.533779      	14.388364      	14.558694      	14.641278      	14.804554      	14.709472      	14.731471      	14.590639      	14.632124      	14.502239      	14.5848        	14.474991      	14.966461      	14.493458      	14.599952      	14.671973      	14.492501      	14.575237      	14.472651      	14.670296      	14.56509       	14.635304      	14.604672      	14.555206      	14.679596      	14.420703      	14.713668      	14.778751      	14.341927      	14.415392      	14.68162       	14.638274      	14.570131      	14.390067      	14.60649       	14.838093      	14.727511      	14.923563      	14.68879       	14.655139      	14.783779      	14.7370615     	15.00957       	14.868442      	14.595171      	14.608201      	14.773591      	14.569487      	14.72145       	14.679041      	14.6614685     	14.675817      	14.904619      	14.884987      	14.521411      	14.86339       	15.099231      	14.780255      	15.569925      	15.2470875     	
14.282559      	14.469387      	14.331183      	14.448237      	14.434647      	14.465709      	14.687282      	14.349079      	14.457601      	14.434379      	14.46557       	14.6400795     	14.652109      	14.468225      	14.60663       	14.583162      	14.565415      	14.731996      	14.494811      	14.314785      	14.70286       	14.4986925     	14.33796       	14.639635      	14.542983      	14.406917      	14.489848      	14.695391      	14.708396      	14.760447      	14.811678      	14.693277      	14.62948       	14.731888      	14.718352      	14.689228      	14.536357      	14.478802      	14.822273      	14.582766      	14.808652      	14.35759       	14.55183       	14.436252      	14.858106      	14.540178      	14.891221      	14.784792      	14.707828      	14.456631      	14.705843      	14.7205515     	14.70456       	14.683731      	14.675255      	14.639076      	14.661961      	14.729761      	14.541515      	14.641076      	14.499676      	14.475491      	14.464124      	14.583691      	14.692573      	14.650536      	14.570153      	14.500002      	14.624776      	14.561338      	14.402086      	14.307862      	14.490337      	14.403203      	14.433155      	14.599642      	14.476002      	14.618446      	14.673223      	14.409501      	14.711079      	14.641928      	14.426627      	14.462998      	14.526193      	14.568812      	14.741578      	14.442542      	15.016632      	14.948405      	15.024223      	15.115673      	14.762558      	15.074311      	15.178491      	14.826429      	15.317505      	15.779939      	16.31967       	15.841655      	
14.355059      	14.407554      	14.597632      	14.48951       	14.700142      	14.8991        	14.744977      	14.514611      	14.694042      	14.719461      	14.571194      	14.711405      	14.928926      	15.047362      	14.829713      	14.746613      	14.817893      	14.922706      	14.850018      	14.8834915     	14.977224      	15.033293      	14.644849      	14.750709      	14.684464      	14.749749      	14.611429      	14.6157255     	14.564019      	14.514232      	14.693018      	14.71639       	14.830401      	14.672956      	14.672489      	14.515797      	14.775972      	14.705243      	14.955252      	14.802179      	14.798505      	14.774838      	14.655713      	14.704505      	14.745113      	14.910756      	14.92734       	14.883596      	14.679478      	15.11709       	14.861858      	14.81541       	14.567877      	14.79576       	14.845187      	14.934433      	14.682176      	14.708425      	14.806134      	14.627336      	14.877405      	14.771087      	14.695975      	14.684068      	15.05482       	14.784733      	14.648971      	15.002836      	14.918997      	14.940659      	15.032119      	15.178824      	14.014597      	13.156401      	12.924674      	13.616602      	14.072103      	14.719746      	14.863633      	14.917653      	14.924355      	14.677238      	14.697091      	14.814897      	14.809911      	14.917422      	14.622574      	14.747643      	14.782242      	14.951834      	14.947805      	14.563426      	14.720582      	15.041298      	14.886665      	15.097221      	15.127453      	14.914101      	15.556116      	15.631496      	
14.304909      	14.5058        	14.336811      	14.346564      	14.378453      	14.477652      	14.4787655     	14.468184      	14.423564      	14.355185      	14.389356      	14.211909      	14.427335      	14.614411      	14.722677      	14.695138      	14.655573      	14.589128      	14.525537      	14.637455      	14.862862      	14.901781      	14.762075      	14.795249      	14.957504      	14.699126      	14.7196045     	14.93584       	14.918197      	14.996516      	14.864055      	14.598009      	14.710796      	14.770376      	14.4249115     	14.726692      	14.699524      	14.963436      	15.111395      	15.032217      	14.98143       	14.755951      	14.547446      	14.676067      	14.845453      	14.74676       	14.826122      	14.855073      	14.676061      	14.838342      	14.951257      	14.777447      	14.792606      	14.641965      	14.882316      	14.74196       	14.956258      	14.789713      	14.580288      	14.468318      	14.687257      	14.703246      	14.749453      	14.56786       	14.8417425     	15.431005      	14.135671      	12.83646       	13.578613      	12.637113      	11.858014      	11.812295      	11.076859      	10.928854      	10.656364      	11.056546      	10.848789      	11.918426      	14.5789585     	15.1363        	14.92558       	15.123712      	15.06395       	15.037996      	15.02605       	15.005777      	15.199339      	15.182416      	15.008942      	15.599941      	15.200622      	15.2611265     	15.0195465     	15.334342      	15.30622       	15.4599085     	15.230164      	15.302153      	16.131485      	16.125273      	
14.646007      	14.662458      	14.610213      	14.495437      	14.543936      	14.766496      	14.496328      	14.621467      	14.450871      	14.324385      	14.385157      	14.354188      	14.430998      	14.790426      	14.620958      	14.578153      	14.696271      	14.754504      	14.729499      	14.847112      	14.951269      	14.812184      	14.804471      	14.582177      	14.740795      	14.5828905     	14.638052      	14.616704      	14.594565      	14.750974      	14.755031      	14.655803      	14.662754      	14.724257      	14.917491      	14.681978      	14.705845      	14.728542      	14.527924      	14.752297      	14.867618      	14.720406      	14.794167      	14.432374      	14.474014      	14.375341      	14.638233      	14.593182      	14.597312      	14.62665       	14.827834      	14.569926      	14.661335      	14.704998      	14.441609      	14.411377      	14.212172      	14.132534      	14.33493       	14.418408      	14.303215      	14.321518      	14.706133      	14.419566      	13.559734      	12.924132      	11.604179      	11.208847      	11.235246      	10.692464      	10.829747      	10.903254      	10.691512      	10.665894      	10.691917      	10.727854      	10.355834      	10.371554      	13.657112      	14.812651      	14.92419       	15.12695       	14.992051      	15.005271      	15.0485325     	15.067325      	15.002313      	15.1534395     	14.929468      	15.281086      	14.883026      	15.116568      	14.898447      	15.112658      	15.078398      	15.297052      	15.246691      	15.249448      	15.538128      	15.923768      	
14.360225      	14.53119       	14.271929      	14.2465725     	14.481095      	14.359514      	14.260346      	14.250933      	14.231757      	14.189321      	14.302068      	14.250845      	14.373537      	14.530447      	14.342932      	14.435702      	14.234865      	14.303148      	14.49917       	14.48169       	14.33391       	14.393444      	14.497643      	14.448899      	14.509925      	14.314556      	14.366771      	14.1970005     	14.455461      	14.406801      	14.203315      	14.319911      	14.285527      	14.408814      	14.736121      	14.173025      	14.115902      	14.349773      	14.152256      	14.465343      	13.956258      	14.510904      	14.370008      	14.591775      	14.454174      	14.728916      	14.38505       	14.382594      	14.3274145     	14.738062      	14.360926      	14.214239      	14.322421      	15.239631      	14.656609      	14.175732      	14.360446      	14.41611       	15.296398      	13.265477      	12.505365      	13.046243      	11.968739      	11.59697       	11.007771      	10.901988      	10.586434      	10.86327       	11.064144      	11.010425      	10.993352      	11.374869      	11.108576      	11.214859      	10.97227       	10.730426      	10.915338      	11.223487      	12.407674      	14.744194      	14.834238      	14.887852      	14.643596      	14.825559      	14.775494      	14.760889      	14.885162      	14.691374      	14.987297      	14.768848      	14.820743      	14.842325      	14.864536      	14.795278      	14.885274      	14.824586      	14.760781      	15.010926      	15.017707      	15.109815      	
14.563533      	14.602962      	14.485905      	14.690322      	14.628135      	14.482822      	14.573171      	14.2998495     	14.6207485     	14.388468      	14.581322      	14.486552      	14.544845      	14.596481      	14.633021      	14.396049      	14.7026825     	14.395658      	14.496891      	14.474955      	14.559971      	14.662513      	14.439122      	14.510364      	14.656512      	14.564437      	14.461093      	14.519327      	14.545793      	14.33132       	14.658699      	14.62326       	14.4878235     	14.395778      	14.347258      	14.226052      	14.226214      	14.50889       	14.200304      	14.483502      	14.328821      	14.346295      	14.22715       	14.352456      	14.445141      	14.388752      	14.17659       	14.360398      	14.372809      	14.312138      	14.009593      	14.041933      	13.801479      	15.141309      	14.012976      	13.08805       	12.220052      	11.408708      	11.639936      	11.01292       	10.98045       	10.813444      	10.758706      	10.656043      	10.962563      	10.783324      	10.930434      	10.958227      	11.012238      	11.386588      	11.105568      	11.318329      	11.201792      	11.381606      	11.308406      	11.047021      	10.506901      	10.955174      	11.91671       	14.163719      	14.765294      	14.708685      	14.874899      	14.804502      	14.864833      	14.962084      	14.665451      	15.115589      	14.980052      	14.935867      	14.97203       	14.965822      	15.271069      	15.205178      	15.284687      	15.291471      	15.2956505     	15.366853      	15.599715      	15.304372      	
14.692497      	14.733668      	14.548173      	14.477486      	14.516029      	14.370468      	14.656035      	14.588931      	14.473206      	14.456237      	14.506983      	14.6647215     	14.624105      	14.704232      	14.7785225     	14.582582      	14.328316      	14.405398      	14.669579      	14.473649      	14.357209      	14.65783       	14.471429      	14.509525      	14.642916      	14.536096      	14.598426      	14.504642      	14.557         	14.727539      	14.739552      	14.6795        	14.535782      	14.4811735     	14.394986      	14.343363      	14.72696       	14.324828      	14.629887      	14.612753      	14.477583      	14.393531      	14.30814       	14.379378      	14.413773      	14.456078      	14.158878      	14.3617115     	14.472378      	15.634421      	13.683782      	13.395241      	12.284614      	11.560976      	11.4155245     	11.290992      	10.999569      	10.563649      	10.68184       	11.002504      	10.813005      	10.954687      	10.910783      	10.883515      	11.111347      	10.930457      	11.038513      	11.002245      	11.110308      	11.202045      	11.273562      	11.1731825     	11.34075       	11.351381      	11.018907      	11.16644       	10.918723      	11.630439      	11.827852      	13.204555      	14.514971      	14.596007      	14.70043       	14.4779005     	14.496096      	14.51204       	14.793697      	14.602134      	14.618884      	14.433824      	14.665297      	14.98864       	14.793532      	14.82431       	14.889381      	14.517257      	14.838775      	14.86635       	14.559312      	14.821777      	
14.509272      	14.596162      	14.61234       	14.547033      	14.202839      	14.446075      	14.572176      	14.503843      	14.505272      	14.424251      	14.40542       	14.433174      	14.324809      	14.489539      	14.461674      	14.121841      	14.436681      	14.374168      	14.482387      	14.284806      	14.360784      	14.541524      	14.616451      	14.657108      	14.471115      	14.315289      	14.3734        	14.585422      	14.341282      	14.631546      	14.482446      	14.457308      	14.377073      	14.402215      	14.497695      	14.438121      	14.338258      	14.363683      	14.367329      	14.353112      	14.59196       	14.726634      	14.507009      	14.18242       	14.51362       	15.707704      	13.09928       	12.087933      	12.209968      	11.783785      	11.591225      	11.204343      	11.042352      	10.598752      	10.89396       	10.856672      	10.845736      	10.779997      	10.948405      	10.862396      	11.034823      	10.948004      	11.2150545     	11.131267      	11.32557       	11.220346      	11.161215      	11.14805       	11.263361      	11.486713      	11.282682      	11.242337      	11.661538      	11.080596      	11.140659      	11.055388      	10.892286      	10.99135       	11.860508      	12.976255      	14.546621      	14.334685      	14.667504      	14.797982      	14.87753       	14.825736      	14.626643      	14.706162      	14.774227      	14.482153      	14.613538      	14.614008      	14.746812      	14.841602      	14.96219       	14.943554      	15.019512      	15.321363      	15.518986      	15.082478      	
14.070634      	14.393518      	14.441436      	14.501402      	14.552178      	14.2790985     	14.372496      	14.202751      	14.160428      	14.299106      	14.454828      	14.325107      	14.210464      	14.364231      	14.615573      	14.482448      	14.488046      	14.402485      	14.570674      	14.176968      	14.424771      	14.577175      	14.407508      	14.622219      	14.394194      	14.612541      	14.45366       	14.200497      	14.382746      	14.319856      	14.457389      	14.606906      	14.373652      	14.464902      	14.323408      	14.028547      	14.535777      	14.681034      	14.411012      	14.365824      	14.692638      	15.455464      	14.382458      	12.922483      	12.411902      	11.691063      	10.99006       	10.647026      	10.648094      	10.825043      	10.855654      	10.656032      	10.72336       	10.850593      	10.82349       	11.108628      	10.894444      	11.179021      	10.973243      	10.965281      	11.214976      	11.035119      	11.139581      	11.096316      	11.321656      	11.204306      	11.248693      	11.100609      	11.185864      	11.45307       	11.488007      	11.273623      	11.226179      	11.09354       	11.402623      	10.867515      	10.911315      	10.612312      	10.613284      	12.678309      	14.265129      	14.565353      	14.561062      	14.740711      	14.700359      	14.928514      	14.611989      	14.870159      	14.741848      	14.820254      	14.967093      	14.886055      	14.787122      	14.800634      	15.043101      	15.050868      	15.089376      	15.205651      	15.200191      	14.898841      	
14.570947      	14.4905615     	14.354611      	14.378784      	14.415134      	14.583584      	14.4620695     	14.686198      	14.559606      	14.4354725     	14.34899       	14.398291      	14.5591955     	14.498228      	14.577238      	14.539587      	14.581699      	14.540581      	14.738315      	14.535808      	14.302279      	14.465418      	14.507328      	14.370914      	14.402214      	14.384086      	14.28688       	14.384481      	13.88821       	14.66505       	14.747431      	14.553937      	14.582355      	14.398031      	14.507333      	14.689661      	14.616586      	14.513603      	14.6724615     	14.779645      	15.707841      	13.3981905     	11.658499      	10.829519      	10.714063      	10.6574955     	10.881544      	11.009428      	10.735395      	10.835834      	11.043825      	11.014341      	11.011207      	11.113461      	11.043802      	11.025543      	11.194679      	11.105325      	11.285224      	11.181498      	11.272623      	11.135568      	11.2720375     	11.217844      	11.109388      	11.203928      	11.365272      	10.958667      	11.286426      	11.42793       	11.350083      	11.282705      	11.121156      	11.183419      	11.571991      	11.08256       	11.057369      	11.155         	10.850085      	12.343828      	14.268518      	14.7328005     	14.788299      	14.642927      	14.914049      	14.913739      	14.733993      	14.714665      	14.704786      	14.905488      	15.108552      	14.624724      	14.972622      	14.914487      	14.965623      	14.924665      	14.950454      	15.131627      	15.307643      	14.942441      	
14.519355      	14.670549      	14.533695      	14.473749      	14.421628      	14.633544      	14.344842      	14.586876      	14.392895      	14.369403      	14.578822      	14.374625      	14.536077      	14.694556      	14.713256      	14.499364      	14.897507      	14.8956        	14.468936      	14.246813      	14.837442      	14.678484      	14.721462      	14.880104      	14.638248      	14.965781      	14.784371      	14.622747      	14.566698      	14.797888      	14.641986      	14.67741       	14.789728      	14.644421      	14.751289      	15.003064      	14.797262      	15.039058      	14.981234      	15.598319      	13.313178      	11.983921      	11.316979      	10.983695      	10.865678      	10.824607      	10.971578      	11.169985      	11.1359625     	11.127458      	11.159804      	11.274183      	11.420277      	11.075619      	11.33162       	11.353186      	11.374763      	11.198268      	11.493136      	11.437083      	11.319305      	11.338937      	11.406274      	11.306458      	11.250846      	11.54674       	11.461244      	11.353999      	11.356968      	11.40981       	11.543777      	11.329935      	11.54536       	11.471814      	11.517369      	11.196898      	11.307636      	10.900487      	10.7975235     	12.24558       	13.891376      	14.760999      	14.47895       	14.748161      	14.874717      	14.814914      	15.045449      	14.646884      	15.020627      	14.996196      	15.073359      	14.986198      	15.003358      	15.095049      	14.980615      	14.946338      	15.03702       	15.064843      	15.36017       	15.098038      	
14.737019      	14.766152      	14.483881      	14.730062      	14.667125      	14.5724125     	14.632504      	14.6247835     	14.574286      	14.762208      	14.422064      	14.651605      	14.487608      	14.440284      	14.555439      	14.55181       	14.781888      	15.027876      	14.372486      	14.576984      	14.59768       	14.669707      	14.668004      	14.621524      	14.67298       	14.550235      	14.718344      	14.732         	14.423674      	14.431148      	14.520962      	14.662794      	14.491946      	14.777255      	14.570985      	14.638856      	14.297936      	14.643278      	14.216784      	15.724555      	13.09419       	11.803333      	11.2392235     	10.654063      	10.42687       	10.64378       	10.840787      	11.199872      	11.220021      	11.177833      	11.379994      	11.242853      	11.073708      	11.230332      	11.524677      	11.323009      	11.128097      	11.337423      	11.123604      	11.277621      	11.320189      	11.276173      	11.341217      	11.29515       	11.223295      	11.423234      	11.241715      	11.205323      	11.29184       	11.420775      	11.522623      	11.331143      	11.3953495     	11.37729       	11.436297      	11.13392       	11.222778      	11.009755      	11.185126      	11.366745      	13.781155      	14.415757      	14.985067      	14.899102      	14.913888      	14.975905      	14.865764      	14.843782      	14.773344      	14.91059       	14.945556      	15.195557      	15.144526      	15.300368      	15.0786495     	15.746232      	15.234436      	15.66573       	16.278746      	15.972902      	
14.492902      	14.357853      	14.242003      	14.347807      	14.235012      	14.348784      	14.318893      	14.402401      	14.500916      	14.438697      	14.349782      	14.2518635     	14.282331      	14.248052      	14.417502      	14.399881      	14.468146      	14.639758      	14.015322      	14.274947      	14.292866      	14.568016      	14.1921        	14.420962      	14.409417      	14.285305      	14.455601      	14.415952      	13.994394      	14.772469      	14.833352      	14.712306      	14.638528      	14.64396       	14.88736       	14.647502      	14.742522      	14.737851      	14.957288      	16.24391       	13.814246      	12.276879      	11.797762      	11.341989      	10.575289      	10.85841       	10.878398      	11.152492      	11.252203      	11.463444      	11.257012      	11.362467      	11.360157      	12.046836      	11.667166      	10.968584      	11.276046      	11.343756      	11.3544445     	11.321899      	11.390588      	11.519895      	11.246621      	11.38325       	11.524036      	11.473011      	11.244428      	11.263811      	11.206343      	11.485686      	11.085681      	11.6183815     	11.320626      	11.30125       	11.288664      	11.251848      	11.216016      	11.072516      	10.949422      	11.22612       	13.1889305     	14.490917      	14.370784      	14.375269      	14.626294      	14.539892      	14.479247      	14.330338      	14.5989895     	14.751091      	14.737953      	14.925944      	14.441231      	14.5779915     	14.611048      	14.764913      	14.853463      	15.184287      	14.986378      	14.97233       	
14.787853      	14.650354      	14.71738       	15.012351      	14.854016      	14.709322      	14.704931      	14.612471      	14.761769      	14.504507      	14.7017        	14.669496      	14.541928      	14.510806      	14.773648      	14.908349      	14.651621      	14.594515      	14.731073      	14.908257      	14.727133      	14.914126      	14.71952       	14.669894      	15.024208      	14.675609      	14.650308      	14.5076685     	14.673824      	14.572623      	15.076882      	14.8649025     	14.566816      	14.887407      	14.803733      	14.898918      	14.935558      	15.293511      	15.31981       	15.757485      	15.491926      	13.087113      	12.1383915     	11.907868      	11.300509      	11.003491      	11.100388      	11.353276      	11.39146       	11.43724       	11.252566      	11.283985      	11.319814      	11.297345      	11.069146      	11.245601      	11.3828745     	11.214551      	11.447391      	11.06996       	11.30852       	11.287169      	11.337943      	11.439474      	11.38888       	11.734954      	11.081822      	11.117368      	11.478582      	11.45245       	11.413986      	11.390068      	11.3424635     	11.408214      	11.327082      	11.213345      	11.0791445     	10.8539095     	10.883262      	10.519472      	11.8936        	14.065536      	14.374175      	14.521193      	14.39704       	14.536813      	14.799015      	14.618982      	14.858619      	14.764274      	14.361071      	14.602173      	14.950807      	14.68254       	14.865881      	14.932918      	14.921415      	14.976617      	14.790082      	14.855678      	
14.426938      	14.353141      	14.349645      	14.333433      	14.540431      	14.518451      	14.416544      	14.170613      	14.548406      	14.338852      	14.566743      	14.438381      	14.391539      	14.3538        	14.09536       	14.984258      	14.364262      	14.517596      	14.5143175     	14.375462      	14.329038      	14.247254      	14.599419      	14.288672      	14.472893      	14.306128      	14.406448      	14.303864      	14.3154335     	14.645362      	14.302314      	14.352085      	14.365408      	14.590336      	14.611528      	14.642352      	14.516589      	14.402752      	14.589812      	14.805031      	15.378366      	13.663519      	12.367286      	11.841686      	11.341579      	11.169234      	11.077517      	11.182821      	11.3167515     	11.123987      	11.363836      	11.494976      	11.262278      	11.221686      	11.230559      	11.211281      	11.177323      	11.274477      	11.420067      	10.960666      	11.082167      	11.256494      	11.245714      	11.406156      	11.379591      	11.0721855     	11.111655      	11.249317      	11.349907      	11.453967      	11.307722      	11.549754      	11.347275      	11.4037695     	11.103823      	11.099458      	10.789779      	11.051615      	10.971373      	10.687835      	11.49273       	13.469615      	14.522963      	14.735047      	14.621102      	14.739467      	14.833656      	14.766497      	14.792689      	14.600141      	14.924519      	14.806214      	14.716624      	14.822574      	14.999803      	14.798822      	14.633846      	15.53455       	15.603803      	14.982431      	
14.772674      	14.383336      	14.661421      	14.44626       	14.434465      	14.455885      	14.664297      	14.316272      	14.482445      	14.565976      	14.610552      	14.800126      	14.190075      	12.654432      	12.520524      	12.7428665     	13.722725      	14.380471      	14.602065      	14.123111      	14.235862      	14.468607      	14.267889      	13.943601      	14.472887      	14.358967      	14.162485      	14.066763      	14.568295      	14.027245      	13.755108      	14.461157      	14.269496      	14.480861      	14.141491      	14.329129      	14.207979      	14.476505      	13.901664      	14.561007      	15.503257      	13.850392      	12.310688      	12.070332      	11.665467      	10.91886       	11.099561      	11.23182       	11.28488       	11.424612      	11.501408      	11.475917      	11.143084      	11.226471      	11.227339      	11.20342       	11.338649      	11.185449      	11.120942      	11.238452      	11.263486      	11.0150385     	11.379584      	11.334994      	10.963455      	11.300527      	11.245841      	11.074578      	11.232979      	11.294857      	11.390378      	11.3274975     	11.01576       	11.229406      	11.235483      	11.0311165     	10.949102      	10.999601      	10.71502       	10.697986      	11.361521      	13.359511      	14.316596      	14.523132      	14.651904      	14.617909      	14.575616      	14.720401      	14.740869      	14.817956      	14.741576      	14.890921      	14.6917095     	14.786283      	14.599834      	14.757617      	14.894228      	14.958642      	14.813785      	14.845107      	
