# www.neaspec.com
# Scan:	 	Whitelight Imaging
# Project:	 	20251007_PS
# Description:	 	
# Date:	 	10/07/2025 14:41:49
# Scanner Center Position (X, Y):	[µm]	49.66	48.17	 
# Rotation:	[°]	0	 	 
# Scan Area (X, Y, Z):	[µm]	5.000	5.000	0.000
# Pixel Area (X, Y, Z):	[px]	100	100	1
# Interferometer Center/Distance:	[µm]	288.577	0.000	 
# Averaging:	 	1	 	 
# Integration time:	[ms]	5	 	 
# Wavenumber Scaling:	 	1.000000	 	 
# Laser Source:	 	4.5-15 µm nano-FTIR laser
# Detector:	 	R
# Target Wavelength:	[µm]	10.000	 	 
# Demodulation Mode:	 	Fourier
# Tip Frequency:	[Hz]	241,340.500	 	 
# Tip Amplitude:	[mV]	45.700	 	 
# Tapping Amplitude:	[nm]	74.245	 	 
# Modulation Frequency:	[Hz]	0.000	 	 
# Modulation Amplitude:	[mV]	0.000	 	 
# Modulation Offset:	[mV]	0.000	 	 
# Setpoint:	[%]	79.75	 	 
# Regulator (P, I, D):	 	4.206850	8.625812	1.000000
# Tip Potential:	[mV]	0.000	 	 
# M1A Scaling:	[nm/V]	0.426	 	 
# M1A Cantilever Factor:	 	1,000	 	 
# Q-Factor:	 	487.4	 	 
# Version:	 	2.1.11536.0
1227.7612      	1227.7323      	1227.6603      	1227.7747      	1227.8427      	1227.9609      	1227.9535      	1227.9398      	1227.9602      	1227.9177      	1227.9277      	1227.9312      	1227.8872      	1227.9054      	1227.8992      	1227.9001      	1227.8983      	1227.9003      	1227.9353      	1227.8518      	1228.0128      	1227.8429      	1227.9154      	1227.9894      	1227.8892      	1227.92        	1227.9034      	1227.8973      	1227.945       	1227.8917      	1227.8895      	1227.9415      	1227.8983      	1227.9224      	1227.9154      	1227.872       	1227.873       	1227.9901      	1228.1294      	1228.1403      	1228.332       	1227.9705      	1227.9324      	1227.8904      	1227.855       	1227.8993      	1227.9058      	1227.9274      	1227.9298      	1227.9388      	1227.9565      	1227.9454      	1227.9282      	1228.0099      	1227.974       	1227.9886      	1227.9348      	1227.9834      	1227.9926      	1227.9957      	1227.9244      	1227.969       	1227.9999      	1228.13        	1227.4114      	1227.7198      	1227.8225      	1227.8292      	1227.9852      	1227.9132      	1228.0134      	1228.0184      	1227.9907      	1228.0254      	1228.0148      	1228.0037      	1228.1082      	1227.9851      	1228.045       	1228.0509      	1228.0944      	1228.0328      	1228.1229      	1228.0942      	1228.047       	1228.1062      	1228.0958      	1228.1621      	1228.1005      	1228.1282      	1228.1864      	1228.183       	1228.1127      	1228.1422      	1228.1425      	1228.164       	1228.1943      	1228.1985      	1228.1534      	1228.2072      	
1228.5487      	1228.1013      	1228.1094      	1228.1876      	1228.275       	1228.3688      	1228.3787      	1228.3298      	1228.3632      	1228.3292      	1228.4004      	1228.2833      	1228.359       	1228.198       	1228.2716      	1228.2875      	1228.3475      	1228.3335      	1228.3096      	1228.2891      	1228.2631      	1228.3315      	1228.2268      	1228.3163      	1228.3279      	1228.3257      	1228.2489      	1228.2533      	1228.3896      	1228.2892      	1228.2676      	1228.2938      	1228.2966      	1228.2543      	1228.2948      	1228.2493      	1228.2684      	1228.3411      	1228.4144      	1228.4833      	1228.6951      	1228.5411      	1228.1877      	1228.2059      	1228.2656      	1228.2509      	1228.155       	1228.1991      	1228.252       	1228.2347      	1228.2394      	1228.2502      	1228.2461      	1228.2407      	1228.199       	1228.2247      	1228.2001      	1228.24        	1228.1671      	1228.212       	1228.2505      	1228.2751      	1228.2336      	1228.4126      	1227.612       	1227.9285      	1228.0559      	1228.0594      	1228.1356      	1228.2522      	1228.1923      	1228.2173      	1228.2683      	1228.1827      	1228.2618      	1228.1627      	1228.3083      	1228.2146      	1228.2579      	1228.253       	1228.2809      	1228.2087      	1228.272       	1228.2465      	1228.2999      	1228.2161      	1228.3096      	1228.2603      	1228.2518      	1228.2654      	1228.2352      	1228.2764      	1228.2792      	1228.1931      	1228.3367      	1228.3257      	1228.2932      	1228.2343      	1228.2335      	1228.2715      	
1228.72        	1228.2919      	1228.2981      	1228.4048      	1228.413       	1228.5475      	1228.5891      	1228.6093      	1228.5997      	1228.598       	1228.5527      	1228.4904      	1228.5424      	1228.6046      	1228.5286      	1228.5385      	1228.5792      	1228.5298      	1228.5137      	1228.6068      	1228.52        	1228.5411      	1228.6011      	1228.5361      	1228.5558      	1228.5663      	1228.5645      	1228.5739      	1228.5111      	1228.6222      	1228.5149      	1228.5392      	1228.5262      	1228.5608      	1228.4988      	1228.6063      	1228.458       	1228.5737      	1228.6871      	1228.784       	1228.8254      	1228.8328      	1228.5671      	1228.4608      	1228.4532      	1228.5618      	1228.5436      	1228.5142      	1228.5404      	1228.5352      	1228.5404      	1228.4973      	1228.5531      	1228.5381      	1228.4974      	1228.5448      	1228.5568      	1228.5585      	1228.4976      	1228.5665      	1228.5359      	1228.5618      	1228.517       	1228.6981      	1228.118       	1228.2144      	1228.297       	1228.325       	1228.4257      	1228.5546      	1228.62        	1228.5735      	1228.572       	1228.5624      	1228.6135      	1228.5477      	1228.6674      	1228.6436      	1228.6189      	1228.6284      	1228.6005      	1228.6477      	1228.6017      	1228.597       	1228.6765      	1228.5625      	1228.7124      	1228.5986      	1228.6077      	1228.6191      	1228.6447      	1228.5466      	1228.7146      	1228.6227      	1228.67        	1228.622       	1228.8324      	1228.6165      	1228.4707      	1228.5876      	
1228.6367      	1228.1003      	1228.2788      	1228.349       	1228.4213      	1228.4344      	1228.5009      	1228.5096      	1228.596       	1228.4414      	1228.5549      	1228.5015      	1228.4576      	1228.5675      	1228.5203      	1228.5261      	1228.5579      	1228.5687      	1228.5468      	1228.5735      	1228.578       	1228.5695      	1228.579       	1228.613       	1228.5559      	1228.5287      	1228.5538      	1228.5652      	1228.5857      	1228.4724      	1228.5923      	1228.5305      	1228.615       	1228.5128      	1228.5542      	1228.6414      	1228.3782      	1228.4966      	1228.7003      	1228.8751      	1228.7856      	1228.815       	1228.6803      	1228.5487      	1228.5293      	1228.511       	1228.5858      	1228.6193      	1228.5464      	1228.5643      	1228.6261      	1228.5741      	1228.6223      	1228.6643      	1228.5669      	1228.5901      	1228.683       	1228.5852      	1228.6099      	1228.6049      	1228.6536      	1228.6503      	1228.5271      	1228.6471      	1228.3354      	1228.312       	1228.343       	1228.4221      	1228.4397      	1228.6259      	1228.6423      	1228.6368      	1228.6108      	1228.671       	1228.623       	1228.6857      	1228.677       	1228.7178      	1228.7014      	1228.662       	1228.6871      	1228.7616      	1228.6515      	1228.674       	1228.7185      	1228.7001      	1228.7535      	1228.7279      	1228.772       	1228.7585      	1228.7219      	1228.7329      	1228.7898      	1228.7161      	1228.7705      	1228.6743      	1228.7561      	1228.7986      	1228.7446      	1228.7002      	
1228.623       	1228.024       	1228.2439      	1228.2373      	1228.3748      	1228.2972      	1228.5125      	1228.459       	1228.5302      	1228.4523      	1228.5188      	1228.4532      	1228.4993      	1228.4674      	1228.5195      	1228.4386      	1228.5315      	1228.4712      	1228.5604      	1228.4098      	1228.4993      	1228.4983      	1228.5237      	1228.4795      	1228.4192      	1228.5542      	1228.5132      	1228.5323      	1228.4381      	1228.5139      	1228.5278      	1228.4369      	1228.4858      	1228.4407      	1228.591       	1228.4214      	1228.4872      	1228.4414      	1228.5808      	1228.6326      	1228.7568      	1228.7313      	1228.5385      	1228.4099      	1228.4758      	1228.4768      	1228.4569      	1228.4772      	1228.4708      	1228.4471      	1228.4666      	1228.4967      	1228.4788      	1228.4822      	1228.4509      	1228.5063      	1228.499       	1228.4604      	1228.511       	1228.4749      	1228.4902      	1228.4758      	1228.507       	1228.5946      	1228.1865      	1228.1201      	1228.3198      	1228.344       	1228.1954      	1228.5199      	1228.535       	1228.5217      	1228.5421      	1228.5459      	1228.5292      	1228.5157      	1228.5867      	1228.5282      	1228.5731      	1228.5791      	1228.5851      	1228.5862      	1228.583       	1228.542       	1228.644       	1228.5137      	1228.6047      	1228.5913      	1228.5403      	1228.5608      	1228.5793      	1228.6239      	1228.6125      	1228.6473      	1228.6063      	1228.637       	1228.6986      	1228.6802      	1228.6215      	1228.6345      	
1228.7632      	1228.4875      	1228.2772      	1228.5011      	1228.4109      	1228.4451      	1228.6812      	1228.6837      	1228.6193      	1228.6398      	1228.6464      	1228.6305      	1228.6003      	1228.6542      	1228.7031      	1228.6853      	1228.7083      	1228.6707      	1228.7124      	1228.7144      	1228.6682      	1228.6884      	1228.6938      	1228.7035      	1228.6735      	1228.7303      	1228.712       	1228.7383      	1228.6389      	1228.6771      	1228.686       	1228.6567      	1228.6783      	1228.6112      	1228.6698      	1228.62        	1228.6719      	1228.5875      	1228.7919      	1228.8488      	1229.0536      	1228.8954      	1228.7076      	1228.6207      	1228.6824      	1228.6697      	1228.6825      	1228.7162      	1228.6327      	1228.6566      	1228.662       	1228.657       	1228.7347      	1228.7157      	1228.7579      	1228.6534      	1228.7429      	1228.787       	1228.7241      	1228.7183      	1228.8188      	1228.6719      	1228.846       	1228.6655      	1228.7013      	1228.3728      	1228.4866      	1228.5416      	1228.5936      	1228.799       	1228.85        	1228.7739      	1228.8195      	1228.8096      	1228.827       	1228.787       	1228.8403      	1228.8561      	1228.9279      	1228.8073      	1228.8958      	1228.871       	1228.9431      	1228.768       	1228.873       	1228.8616      	1228.828       	1228.8947      	1228.8197      	1228.8466      	1228.8398      	1228.8931      	1228.8608      	1228.8129      	1228.8971      	1228.9324      	1228.9358      	1229.0422      	1228.8527      	1228.787       	
1228.5364      	1228.5658      	1227.9373      	1228.2046      	1228.2727      	1228.2911      	1228.5178      	1228.5167      	1228.4921      	1228.4675      	1228.4921      	1228.4994      	1228.5364      	1228.4167      	1228.4812      	1228.4475      	1228.5111      	1228.4966      	1228.4891      	1228.5128      	1228.5226      	1228.465       	1228.5339      	1228.4474      	1228.5386      	1228.4929      	1228.463       	1228.5044      	1228.4911      	1228.4738      	1228.5039      	1228.496       	1228.5037      	1228.3854      	1228.5358      	1228.462       	1228.493       	1228.4387      	1228.5607      	1228.6371      	1228.7426      	1228.9255      	1228.7333      	1228.4883      	1228.5237      	1228.4958      	1228.5269      	1228.4905      	1228.5         	1228.5162      	1228.4875      	1228.4878      	1228.4976      	1228.5107      	1228.4796      	1228.4712      	1228.528       	1228.4956      	1228.4899      	1228.5083      	1228.6154      	1228.5515      	1228.5515      	1228.5876      	1228.7374      	1228.0078      	1228.3062      	1228.3805      	1228.4456      	1228.4939      	1228.6067      	1228.573       	1228.5511      	1228.6099      	1228.6757      	1228.6565      	1228.6349      	1228.5795      	1228.7101      	1228.6351      	1228.6337      	1228.6346      	1228.7046      	1228.6755      	1228.6497      	1228.6659      	1228.6897      	1228.6392      	1228.6816      	1228.6627      	1228.7152      	1228.6874      	1228.6792      	1228.7258      	1228.6987      	1228.7999      	1228.788       	1228.7668      	1228.6335      	1228.7036      	
1229.0592      	1228.9641      	1228.5549      	1228.8134      	1228.9021      	1228.7266      	1228.9503      	1229.0488      	1229.0154      	1229.0999      	1229.0323      	1229.009       	1229.1112      	1228.9998      	1229.0562      	1229.0532      	1229.0376      	1229.0084      	1229.013       	1229.0775      	1229.0205      	1229.0155      	1229.0532      	1229.0016      	1229.0206      	1229.0013      	1228.9784      	1229.0394      	1228.9894      	1229.0063      	1229.0282      	1228.9797      	1228.9724      	1228.9877      	1228.9982      	1228.9778      	1229.0172      	1228.998       	1228.9539      	1229.0918      	1229.1669      	1229.2808      	1229.2583      	1228.9152      	1228.9462      	1228.8762      	1228.9624      	1228.8849      	1228.9137      	1228.9236      	1228.9796      	1228.9329      	1228.9363      	1228.9486      	1228.9323      	1228.8896      	1228.8918      	1228.955       	1228.9126      	1228.9523      	1228.8766      	1228.9851      	1228.9216      	1228.9519      	1229.1057      	1228.4663      	1228.7288      	1228.7335      	1228.7456      	1228.806       	1228.9653      	1228.9801      	1229.0388      	1228.9415      	1229.06        	1228.993       	1229.014       	1228.9857      	1229.0211      	1229.0409      	1229.0334      	1229.0284      	1228.9862      	1229.0392      	1229.0352      	1229.0054      	1229.0298      	1228.9885      	1229.0427      	1229.0984      	1229.053       	1229.0905      	1229.0466      	1228.9788      	1228.9155      	1229.0454      	1229.0532      	1229.0973      	1229.2         	1229.2596      	
1229.0859      	1229.1775      	1228.5139      	1228.7405      	1228.8755      	1228.9247      	1228.977       	1229.0962      	1229.0952      	1229.0813      	1229.0706      	1229.1223      	1229.1029      	1229.1163      	1229.0731      	1229.1125      	1229.1298      	1229.1024      	1229.1741      	1229.1107      	1229.1187      	1229.1792      	1229.0956      	1229.1473      	1229.1405      	1229.1744      	1229.0317      	1229.12        	1229.178       	1229.1907      	1229.1324      	1229.1364      	1229.1616      	1229.1458      	1229.0723      	1229.1726      	1229.1943      	1229.1278      	1229.155       	1229.2485      	1229.3756      	1229.5426      	1229.5063      	1229.241       	1229.1932      	1229.0988      	1229.1616      	1229.1544      	1229.1864      	1229.158       	1229.1531      	1229.2219      	1229.1998      	1229.2019      	1229.201       	1229.2167      	1229.1538      	1229.2161      	1229.2004      	1229.1981      	1229.2079      	1229.3124      	1229.2513      	1229.2495      	1229.2655      	1229.2544      	1228.8134      	1229.0592      	1229.1166      	1229.1423      	1229.4003      	1229.2701      	1229.346       	1229.3324      	1229.4161      	1229.4175      	1229.3953      	1229.3933      	1229.4069      	1229.401       	1229.4536      	1229.4728      	1229.5684      	1229.4323      	1229.3704      	1229.3044      	1229.3735      	1229.3519      	1229.4651      	1229.4801      	1229.4114      	1229.3671      	1229.3967      	1229.431       	1229.4038      	1229.6042      	1229.718       	1229.4143      	1229.3457      	1229.4305      	
1228.5826      	1228.6997      	1227.9474      	1228.2528      	1228.3107      	1228.366       	1228.3862      	1228.6471      	1228.6128      	1228.5823      	1228.5398      	1228.5812      	1228.5898      	1228.4922      	1228.571       	1228.5751      	1228.6147      	1228.5624      	1228.5656      	1228.5983      	1228.5121      	1228.593       	1228.6161      	1228.6287      	1228.5862      	1228.6072      	1228.6395      	1228.5796      	1228.6191      	1228.6154      	1228.5985      	1228.5724      	1228.636       	1228.6544      	1228.6316      	1228.5854      	1228.66        	1228.5996      	1228.6512      	1228.6486      	1228.7773      	1228.8845      	1229.0289      	1228.7935      	1228.6194      	1228.6216      	1228.6497      	1228.7007      	1228.7195      	1228.689       	1228.6755      	1228.687       	1228.6624      	1228.685       	1228.6874      	1228.7042      	1228.6747      	1228.7222      	1228.6798      	1228.7253      	1228.6858      	1228.6975      	1228.812       	1228.6758      	1228.7638      	1228.6847      	1228.2382      	1228.5046      	1228.6116      	1228.6202      	1228.7267      	1228.8531      	1228.8707      	1228.8615      	1228.9506      	1228.8634      	1228.8787      	1228.8973      	1228.9296      	1228.8782      	1228.9344      	1228.998       	1228.9276      	1228.9274      	1228.9785      	1228.9318      	1228.8774      	1229.0004      	1228.9098      	1228.9108      	1228.919       	1228.9591      	1228.8964      	1228.9636      	1229.1487      	1229.1448      	1229.0083      	1228.8575      	1228.9124      	1229.112       	
1228.5575      	1228.6696      	1228.1632      	1228.1544      	1228.3644      	1228.3568      	1228.3761      	1228.4635      	1228.5359      	1228.5072      	1228.5253      	1228.5032      	1228.5378      	1228.5277      	1228.4779      	1228.5121      	1228.5366      	1228.4999      	1228.5021      	1228.519       	1228.5059      	1228.4939      	1228.4949      	1228.4733      	1228.4642      	1228.4397      	1228.368       	1228.5103      	1228.4642      	1228.4061      	1228.4152      	1228.5093      	1228.3999      	1228.4686      	1228.425       	1228.4692      	1228.4147      	1228.4872      	1228.3984      	1228.465       	1228.6024      	1228.6626      	1228.7993      	1228.681       	1228.3898      	1228.414       	1228.4281      	1228.4259      	1228.412       	1228.4626      	1228.3953      	1228.4825      	1228.3147      	1228.4495      	1228.3959      	1228.399       	1228.4418      	1228.4277      	1228.4321      	1228.3955      	1228.4537      	1228.4331      	1228.4921      	1228.4445      	1228.4879      	1228.549       	1227.9485      	1228.2792      	1228.3478      	1228.4417      	1228.4371      	1228.6003      	1228.5729      	1228.5985      	1228.535       	1228.6097      	1228.6467      	1228.5974      	1228.6836      	1228.5898      	1228.6298      	1228.6858      	1228.5669      	1228.6267      	1228.708       	1228.6157      	1228.642       	1228.6337      	1228.6288      	1228.6351      	1228.7635      	1228.8442      	1228.5796      	1228.6017      	1228.6237      	1228.5881      	1228.6425      	1228.5764      	1228.5245      	1228.5562      	
1228.6969      	1228.8167      	1228.7083      	1228.1328      	1228.5187      	1228.6222      	1228.5994      	1228.7179      	1228.7926      	1228.768       	1228.7646      	1228.8258      	1228.7804      	1228.8232      	1228.7947      	1228.7153      	1228.8234      	1228.8413      	1228.7943      	1228.7865      	1228.8448      	1228.8246      	1228.7872      	1228.8173      	1228.8202      	1228.7993      	1228.8114      	1228.7858      	1228.7805      	1228.8275      	1228.8918      	1228.8003      	1228.7886      	1228.8264      	1228.8494      	1228.7758      	1228.813       	1228.8447      	1228.806       	1228.8269      	1228.9486      	1229.014       	1229.1315      	1228.9915      	1228.7834      	1228.7733      	1228.7706      	1228.7524      	1228.7947      	1228.7869      	1228.8387      	1228.776       	1228.8213      	1228.7406      	1228.8195      	1228.759       	1228.8745      	1228.8461      	1228.842       	1228.8207      	1228.8219      	1228.7833      	1228.8513      	1228.8534      	1228.8894      	1228.9305      	1228.4823      	1228.4825      	1228.709       	1228.8542      	1228.8986      	1228.851       	1228.8245      	1228.8938      	1228.9216      	1228.9536      	1228.9562      	1228.9631      	1229.1095      	1228.9524      	1228.9214      	1228.9647      	1229.0042      	1228.9517      	1229.1426      	1229.0382      	1229.0741      	1228.8967      	1228.9562      	1229.0161      	1228.9275      	1228.9769      	1228.9181      	1228.9563      	1228.9163      	1228.8989      	1228.9552      	1229.0613      	1228.8749      	1228.7522      	
1228.4214      	1228.3915      	1228.4885      	1227.8245      	1227.9924      	1228.1857      	1228.1859      	1228.2748      	1228.484       	1228.356       	1228.3285      	1228.4956      	1228.3651      	1228.4181      	1228.3818      	1228.3608      	1228.4097      	1228.4141      	1228.3595      	1228.3956      	1228.3837      	1228.4131      	1228.3729      	1228.3972      	1228.4218      	1228.4045      	1228.3446      	1228.3755      	1228.4021      	1228.4165      	1228.3442      	1228.4647      	1228.3953      	1228.4323      	1228.4097      	1228.3997      	1228.3984      	1228.4426      	1228.4226      	1228.3995      	1228.501       	1228.6633      	1228.7823      	1228.6946      	1228.4998      	1228.3898      	1228.3716      	1228.3684      	1228.444       	1228.424       	1228.4358      	1228.4161      	1228.4185      	1228.4386      	1228.4233      	1228.4581      	1228.4642      	1228.4924      	1228.4324      	1228.4631      	1228.4722      	1228.4474      	1228.4623      	1228.523       	1228.5321      	1228.5907      	1228.5245      	1228.1737      	1228.5198      	1228.4304      	1228.4628      	1228.4156      	1228.5363      	1228.5083      	1228.627       	1228.599       	1228.747       	1228.7181      	1228.6357      	1228.5         	1228.758       	1228.8197      	1228.6365      	1228.6251      	1228.6868      	1228.6675      	1228.6215      	1228.6218      	1228.67        	1228.6007      	1228.6638      	1228.6207      	1228.6884      	1228.7008      	1228.6831      	1228.6947      	1228.6685      	1228.6532      	1228.6766      	1228.7052      	
1228.3337      	1228.3241      	1228.289       	1227.7902      	1227.9841      	1228.0715      	1228.1161      	1228.1676      	1228.4008      	1228.4186      	1228.2599      	1228.3348      	1228.3379      	1228.409       	1228.3572      	1228.304       	1228.3745      	1228.2983      	1228.3627      	1228.326       	1228.3643      	1228.3485      	1228.3329      	1228.348       	1228.368       	1228.3286      	1228.3684      	1228.374       	1228.3494      	1228.4288      	1228.3025      	1228.3167      	1228.3774      	1228.354       	1228.3804      	1228.44        	1228.3977      	1228.3743      	1228.3435      	1228.4166      	1228.4916      	1228.4631      	1228.5646      	1228.7225      	1228.5398      	1228.3693      	1228.3191      	1228.3439      	1228.3391      	1228.3663      	1228.3423      	1228.4042      	1228.3018      	1228.3898      	1228.3835      	1228.371       	1228.3464      	1228.326       	1228.3628      	1228.3201      	1228.3889      	1228.4075      	1228.3495      	1228.3739      	1228.407       	1228.4049      	1228.5216      	1228.3365      	1228.3024      	1228.1727      	1228.299       	1228.4479      	1228.3569      	1228.4646      	1228.5205      	1228.3407      	1228.461       	1228.6483      	1228.6173      	1228.4974      	1228.4514      	1228.4591      	1228.5574      	1228.4769      	1228.4584      	1228.4431      	1228.4993      	1228.4562      	1228.4578      	1228.4669      	1228.4852      	1228.5079      	1228.441       	1228.4966      	1228.4911      	1228.4856      	1228.4558      	1228.5004      	1228.5172      	1228.4683      	
1228.1226      	1228.1562      	1228.2642      	1227.6444      	1227.825       	1228.0182      	1228.0757      	1228.0436      	1228.1454      	1228.248       	1228.153       	1228.1494      	1228.2385      	1228.2286      	1228.2394      	1228.1879      	1228.2196      	1228.1658      	1228.2385      	1228.2083      	1228.1877      	1228.2039      	1228.1929      	1228.2223      	1228.1946      	1228.2054      	1228.2003      	1228.2173      	1228.2255      	1228.255       	1228.1799      	1228.2325      	1228.24        	1228.1907      	1228.2595      	1228.2993      	1228.3112      	1228.2358      	1228.3374      	1228.3027      	1228.2991      	1228.4432      	1228.6002      	1228.5251      	1228.5061      	1228.2054      	1228.2291      	1228.2444      	1228.203       	1228.2032      	1228.2833      	1228.2424      	1228.2443      	1228.2218      	1228.2703      	1228.2761      	1228.2365      	1228.2598      	1228.2385      	1228.2576      	1228.2592      	1228.2881      	1228.2681      	1228.2488      	1228.2815      	1228.231       	1228.3369      	1228.341       	1228.31        	1228.1224      	1228.1976      	1228.3094      	1228.2882      	1228.3615      	1228.4165      	1228.3142      	1228.3143      	1228.3643      	1228.3435      	1228.3068      	1228.3661      	1228.3508      	1228.3634      	1228.3195      	1228.3782      	1228.3352      	1228.3301      	1228.3157      	1228.3898      	1228.3269      	1228.33        	1228.3081      	1228.3362      	1228.4103      	1228.3153      	1228.3358      	1228.3412      	1228.4355      	1228.2639      	1228.2659      	
1227.8989      	1227.9562      	1228.0396      	1227.677       	1227.559       	1227.7117      	1227.8204      	1227.7856      	1227.9479      	1227.9843      	1227.9979      	1228.0286      	1227.9937      	1227.9818      	1227.988       	1228.044       	1227.9921      	1227.9979      	1228.0275      	1228.0096      	1228.0344      	1227.9666      	1228.0017      	1228.018       	1228.0333      	1227.9866      	1228.0359      	1227.9851      	1227.9698      	1227.9143      	1227.9886      	1228.0586      	1227.9282      	1228.0216      	1228.0482      	1227.9636      	1228.0476      	1228.0144      	1228.0266      	1228.0066      	1228.0295      	1228.1597      	1228.235       	1228.4485      	1228.3309      	1228.0541      	1227.968       	1227.9889      	1227.9755      	1227.9724      	1228.0665      	1228.0398      	1228.0594      	1228.0271      	1227.976       	1228.1046      	1228.0221      	1228.0659      	1228.0851      	1228.0245      	1228.057       	1228.0568      	1228.117       	1228.0558      	1228.1707      	1228.0327      	1228.1482      	1228.0859      	1228.1404      	1228.1154      	1228.1724      	1228.0963      	1228.1573      	1228.1884      	1228.1398      	1228.1504      	1228.19        	1228.218       	1228.1992      	1228.1906      	1228.1877      	1228.2124      	1228.1876      	1228.169       	1228.2156      	1228.1643      	1228.2119      	1228.1575      	1228.1663      	1228.1882      	1228.1995      	1228.2092      	1228.1609      	1228.1882      	1228.1661      	1228.2229      	1228.1505      	1228.1576      	1228.1444      	1228.1497      	
1228.065       	1228.0898      	1228.0868      	1228.1527      	1227.5157      	1227.8138      	1227.6816      	1227.8552      	1227.9788      	1228.05        	1228.1011      	1228.0516      	1228.0802      	1228.0309      	1228.128       	1228.1163      	1228.048       	1228.075       	1228.0682      	1228.0287      	1228.0717      	1228.0569      	1228.0637      	1228.0005      	1228.0181      	1228.0591      	1228.0569      	1228.0519      	1228.023       	1228.0549      	1227.9761      	1228.0118      	1228.0377      	1228.0326      	1228.054       	1228.0919      	1228.0491      	1228.0402      	1228.0636      	1228.077       	1228.1072      	1228.114       	1228.2655      	1228.3413      	1228.3059      	1228.0677      	1228.0007      	1227.9832      	1227.9453      	1227.9127      	1227.9512      	1227.985       	1227.9523      	1227.9889      	1227.9724      	1227.9458      	1227.95        	1227.985       	1228.05        	1227.933       	1228.0165      	1227.9324      	1227.9735      	1227.9722      	1227.9191      	1227.9734      	1227.9906      	1227.9839      	1227.9832      	1227.9917      	1228.0375      	1227.9728      	1227.9683      	1227.9637      	1228.027       	1228.0162      	1227.9984      	1228.0217      	1227.9667      	1227.9802      	1228.0212      	1227.971       	1228.0308      	1228.0266      	1227.9669      	1228.0282      	1227.9952      	1228.0056      	1228.0046      	1227.9967      	1228.0059      	1227.979       	1227.9604      	1227.9493      	1227.9968      	1227.9237      	1228.0044      	1228.0021      	1227.9868      	1227.9686      	
1228.3771      	1228.3286      	1228.4297      	1228.4972      	1227.9452      	1228.052       	1228.1145      	1228.2264      	1228.3333      	1228.3745      	1228.4708      	1228.4756      	1228.4231      	1228.5144      	1228.4274      	1228.4327      	1228.4121      	1228.4603      	1228.4158      	1228.4374      	1228.4716      	1228.4567      	1228.4462      	1228.42        	1228.4429      	1228.4431      	1228.4298      	1228.4384      	1228.4468      	1228.4392      	1228.4283      	1228.4884      	1228.4304      	1228.4243      	1228.4686      	1228.4199      	1228.4513      	1228.4364      	1228.4137      	1228.452       	1228.4161      	1228.5308      	1228.6289      	1228.6785      	1228.779       	1228.5663      	1228.371       	1228.3911      	1228.3622      	1228.3784      	1228.3856      	1228.3951      	1228.3749      	1228.3859      	1228.3362      	1228.4142      	1228.3723      	1228.3599      	1228.3694      	1228.4319      	1228.3347      	1228.4291      	1228.3992      	1228.4308      	1228.3628      	1228.4375      	1228.4025      	1228.3708      	1228.4081      	1228.4685      	1228.329       	1228.4116      	1228.3859      	1228.5018      	1228.4471      	1228.4309      	1228.391       	1228.3945      	1228.4022      	1228.4463      	1228.4181      	1228.4553      	1228.4131      	1228.4254      	1228.384       	1228.3661      	1228.4554      	1228.3555      	1228.42        	1228.4474      	1228.3894      	1228.3622      	1228.4009      	1228.3485      	1228.3727      	1228.3854      	1228.4354      	1228.3253      	1228.2253      	1228.2991      	
1228.3108      	1228.3146      	1228.3223      	1228.4026      	1227.9944      	1227.8577      	1228.1434      	1228.2024      	1228.1947      	1228.3973      	1228.38        	1228.3927      	1228.4751      	1228.3849      	1228.4132      	1228.4318      	1228.3513      	1228.4489      	1228.4304      	1228.3593      	1228.4456      	1228.3549      	1228.4009      	1228.3628      	1228.4238      	1228.3998      	1228.411       	1228.4246      	1228.4054      	1228.4575      	1228.398       	1228.4146      	1228.4475      	1228.4471      	1228.4913      	1228.4855      	1228.4722      	1228.508       	1228.481       	1228.4738      	1228.498       	1228.5339      	1228.6333      	1228.6808      	1228.7435      	1228.6757      	1228.4696      	1228.3889      	1228.3884      	1228.4219      	1228.4119      	1228.4218      	1228.3938      	1228.4208      	1228.4846      	1228.4941      	1228.4407      	1228.391       	1228.462       	1228.4872      	1228.5417      	1228.5515      	1228.5662      	1228.5359      	1228.5708      	1228.4899      	1228.5359      	1228.5767      	1228.5519      	1228.5764      	1228.5652      	1228.4954      	1228.5652      	1228.5974      	1228.582       	1228.6057      	1228.573       	1228.5676      	1228.5063      	1228.5673      	1228.6649      	1228.4471      	1228.5017      	1228.5206      	1228.5839      	1228.5309      	1228.564       	1228.539       	1228.5425      	1228.5187      	1228.5203      	1228.5134      	1228.5509      	1228.5269      	1228.5422      	1228.543       	1228.5502      	1228.5497      	1228.5109      	1228.5126      	
1228.2501      	1228.2234      	1228.229       	1228.2987      	1228.1355      	1227.7993      	1228.0895      	1228.1118      	1228.0815      	1228.2771      	1228.2899      	1228.4034      	1228.186       	1228.4202      	1228.2761      	1228.3771      	1228.2761      	1228.3506      	1228.343       	1228.363       	1228.2946      	1228.3551      	1228.3528      	1228.2953      	1228.3179      	1228.3413      	1228.3103      	1228.3369      	1228.3198      	1228.3762      	1228.3514      	1228.3546      	1228.3811      	1228.3804      	1228.3239      	1228.392       	1228.4208      	1228.452       	1228.3574      	1228.436       	1228.4745      	1228.4413      	1228.45        	1228.491       	1228.6367      	1228.6448      	1228.4021      	1228.4022      	1228.352       	1228.3545      	1228.3528      	1228.3477      	1228.4211      	1228.3407      	1228.3604      	1228.3967      	1228.3708      	1228.3596      	1228.4319      	1228.3796      	1228.3608      	1228.3641      	1228.4229      	1228.3751      	1228.397       	1228.4255      	1228.3768      	1228.4644      	1228.4021      	1228.4324      	1228.4501      	1228.3699      	1228.4475      	1228.3577      	1228.4268      	1228.3634      	1228.4249      	1228.3816      	1228.3934      	1228.3385      	1228.4154      	1228.3915      	1228.3777      	1228.3433      	1228.4207      	1228.3116      	1228.3656      	1228.324       	1228.302       	1228.3384      	1228.316       	1228.3818      	1228.3105      	1228.3041      	1228.3021      	1228.3348      	1228.2542      	1228.2498      	1228.2858      	1228.328       	
1228.0637      	1228.074       	1228.0549      	1228.0491      	1228.1995      	1227.493       	1227.787       	1227.8477      	1228.0223      	1228.1238      	1228.1674      	1227.9415      	1228.0852      	1228.2518      	1228.1384      	1228.1897      	1228.1035      	1228.1232      	1228.1472      	1228.147       	1228.1204      	1228.1753      	1228.1815      	1228.1404      	1228.1753      	1228.1699      	1228.1893      	1228.2         	1228.1707      	1228.2631      	1228.1804      	1228.2285      	1228.3281      	1228.2562      	1228.2054      	1228.2781      	1228.2809      	1228.2743      	1228.1967      	1228.2434      	1228.2548      	1228.2925      	1228.2284      	1228.3606      	1228.3157      	1228.446       	1228.2369      	1228.2253      	1228.1635      	1228.1519      	1228.1858      	1228.1727      	1228.1506      	1228.146       	1228.1589      	1228.1736      	1228.16        	1228.216       	1228.189       	1228.1587      	1228.1896      	1228.2032      	1228.2322      	1228.2289      	1228.223       	1228.2761      	1228.2155      	1228.1538      	1228.2618      	1228.1995      	1228.2069      	1228.1484      	1228.2261      	1228.2643      	1228.2528      	1228.2872      	1228.217       	1228.2512      	1228.1964      	1228.2197      	1228.2189      	1228.2026      	1228.1655      	1228.197       	1228.2035      	1228.1829      	1228.1533      	1228.2039      	1228.1702      	1228.2327      	1228.1862      	1228.1616      	1228.1809      	1228.151       	1228.1907      	1228.1547      	1228.1431      	1228.1333      	1228.1495      	1228.1477      	
1228.2052      	1228.1506      	1228.153       	1228.2014      	1228.2794      	1227.6187      	1227.9187      	1228.031       	1228.0067      	1228.1455      	1228.2424      	1228.2434      	1228.2594      	1228.2317      	1228.246       	1228.2426      	1228.224       	1228.2894      	1228.2518      	1228.2604      	1228.2863      	1228.1759      	1228.3154      	1228.2188      	1228.2642      	1228.2468      	1228.2256      	1228.218       	1228.2578      	1228.2639      	1228.2864      	1228.2495      	1228.2745      	1228.2852      	1228.2206      	1228.2476      	1228.2141      	1228.2578      	1228.2091      	1228.2667      	1228.2043      	1228.2703      	1228.3239      	1228.1743      	1228.4768      	1228.2456      	1228.161       	1228.1581      	1228.1764      	1228.1335      	1228.1974      	1228.176       	1228.2181      	1228.1829      	1228.1678      	1228.1431      	1228.1564      	1228.1743      	1228.1821      	1228.1669      	1228.1837      	1228.2042      	1228.1467      	1228.1713      	1228.153       	1228.195       	1228.183       	1228.1776      	1228.2041      	1228.1627      	1228.171       	1228.1412      	1228.1681      	1228.19        	1228.1473      	1228.1564      	1228.1438      	1228.1565      	1228.0963      	1228.1082      	1228.0564      	1228.1112      	1228.1173      	1228.0802      	1228.0919      	1228.1115      	1228.1116      	1228.1624      	1228.0441      	1228.0945      	1228.0793      	1228.0979      	1228.0355      	1228.0377      	1228.073       	1228.0999      	1228.0212      	1228.0286      	1228.0232      	1228.0194      	
1228.2976      	1228.3145      	1228.2834      	1228.2982      	1228.3958      	1227.794       	1227.9695      	1228.1522      	1228.1749      	1228.1909      	1228.3782      	1228.3809      	1228.3538      	1228.3855      	1228.3958      	1228.4052      	1228.4424      	1228.3745      	1228.3625      	1228.4182      	1228.3763      	1228.3795      	1228.41        	1228.4446      	1228.479       	1228.474       	1228.4753      	1228.5507      	1228.3276      	1228.4563      	1228.4406      	1228.4784      	1228.49        	1228.4811      	1228.507       	1228.4019      	1228.414       	1228.5087      	1228.5483      	1228.3887      	1228.5272      	1228.4911      	1228.4292      	1228.3884      	1228.406       	1228.4127      	1228.4208      	1228.3972      	1228.4302      	1228.4055      	1228.3602      	1228.4417      	1228.4746      	1228.438       	1228.3925      	1228.4275      	1228.3992      	1228.4253      	1228.4432      	1228.4048      	1228.3854      	1228.3916      	1228.4491      	1228.4539      	1228.391       	1228.384       	1228.4409      	1228.3977      	1228.4335      	1228.4116      	1228.424       	1228.4167      	1228.354       	1228.4542      	1228.4163      	1228.381       	1228.42        	1228.3615      	1228.4048      	1228.3308      	1228.3723      	1228.3448      	1228.337       	1228.3665      	1228.3505      	1228.2915      	1228.3412      	1228.2904      	1228.31        	1228.2854      	1228.2961      	1228.2573      	1228.2667      	1228.2343      	1228.2668      	1228.2784      	1228.2941      	1228.3187      	1228.2848      	1228.256       	
1228.2245      	1228.1959      	1228.2078      	1228.2069      	1228.2949      	1227.9282      	1227.7228      	1227.9678      	1227.982       	1227.9974      	1228.2335      	1228.2454      	1228.2094      	1228.2399      	1228.2308      	1228.2343      	1228.2675      	1228.2815      	1228.2661      	1228.2219      	1228.2388      	1228.282       	1228.2378      	1228.3435      	1228.2115      	1228.2556      	1228.199       	1228.3608      	1228.1595      	1228.3585      	1228.2467      	1228.3612      	1228.3213      	1228.3177      	1228.2247      	1228.3845      	1228.1875      	1228.2709      	1228.2833      	1228.218       	1228.2522      	1228.2623      	1228.2087      	1228.3032      	1228.2472      	1228.3406      	1228.2498      	1228.2351      	1228.2491      	1228.2516      	1228.2783      	1228.2993      	1228.2429      	1228.325       	1228.2478      	1228.2522      	1228.2805      	1228.2242      	1228.2782      	1228.2876      	1228.2435      	1228.2784      	1228.3196      	1228.2849      	1228.3088      	1228.3059      	1228.297       	1228.2838      	1228.2263      	1228.2296      	1228.245       	1228.2706      	1228.1414      	1228.2335      	1228.2786      	1228.2515      	1228.2397      	1228.2623      	1228.2069      	1228.2191      	1228.2009      	1228.1848      	1228.2144      	1228.2068      	1228.1564      	1228.2062      	1228.1809      	1228.1722      	1228.1292      	1228.1659      	1228.1395      	1228.1989      	1228.1642      	1228.1443      	1228.1238      	1228.134       	1228.1125      	1228.1516      	1228.1492      	1228.1202      	
1228.3177      	1228.2325      	1228.3633      	1228.2134      	1228.2728      	1228.3394      	1227.74        	1228.0267      	1228.0659      	1228.0637      	1228.1998      	1228.2839      	1228.3718      	1228.3046      	1228.3044      	1228.4097      	1228.3733      	1228.348       	1228.2706      	1228.4462      	1228.3427      	1228.3077      	1228.4003      	1228.3354      	1228.3966      	1228.3264      	1228.3507      	1228.3542      	1228.4702      	1228.2365      	1228.5516      	1228.4653      	1228.3556      	1228.3728      	1228.3269      	1228.3538      	1228.3156      	1228.3341      	1228.3784      	1228.3391      	1228.3569      	1228.3206      	1228.3514      	1228.3816      	1228.3563      	1228.3447      	1228.3785      	1228.303       	1228.3419      	1228.356       	1228.3329      	1228.3407      	1228.351       	1228.3558      	1228.3553      	1228.3624      	1228.3315      	1228.3342      	1228.3982      	1228.3302      	1228.3925      	1228.3087      	1228.4006      	1228.3809      	1228.354       	1228.3567      	1228.3884      	1228.383       	1228.4099      	1228.311       	1228.3881      	1228.3813      	1228.3523      	1228.3802      	1228.3005      	1228.2872      	1228.3093      	1228.3173      	1228.3823      	1228.2494      	1228.3472      	1228.3042      	1228.3116      	1228.2458      	1228.2651      	1228.2888      	1228.2551      	1228.2468      	1228.2267      	1228.2404      	1228.2218      	1228.1688      	1228.2085      	1228.1868      	1228.2003      	1228.1942      	1228.1608      	1228.1317      	1228.1506      	1228.1697      	
1228.0646      	1228.0771      	1228.0774      	1228.1073      	1228.0737      	1228.1665      	1227.5214      	1227.8253      	1227.9207      	1227.9402      	1227.9933      	1228.067       	1228.105       	1228.1578      	1228.179       	1228.129       	1228.1742      	1228.1696      	1228.1498      	1227.9635      	1228.1719      	1228.174       	1228.065       	1228.1179      	1228.0977      	1228.1616      	1228.1439      	1228.2544      	1228.0673      	1228.0533      	1228.0911      	1228.0779      	1228.1384      	1228.124       	1228.1278      	1228.0878      	1228.1487      	1228.1427      	1228.1202      	1228.1406      	1228.1653      	1228.0544      	1228.1519      	1228.1484      	1228.1245      	1228.1555      	1228.0977      	1228.1001      	1228.1057      	1228.1237      	1228.1005      	1228.1597      	1228.088       	1228.1189      	1228.1516      	1228.1029      	1228.131       	1228.1466      	1228.14        	1228.1444      	1228.1465      	1228.1444      	1228.1338      	1228.1503      	1228.176       	1228.1931      	1228.1759      	1228.154       	1228.1523      	1228.1492      	1228.1154      	1228.1226      	1228.0691      	1228.1278      	1228.048       	1228.1346      	1228.1254      	1228.1211      	1228.0786      	1228.0825      	1228.1179      	1228.0828      	1228.1057      	1228.1123      	1228.0951      	1228.049       	1228.0774      	1228.1062      	1228.0027      	1228.061       	1228.0594      	1228.0525      	1228.0265      	1228.0443      	1228.0061      	1228.0587      	1228.0579      	1228.0173      	1227.9836      	1227.962       	
1228.326       	1228.305       	1228.2413      	1228.3224      	1228.3198      	1228.3546      	1228.0011      	1227.9667      	1228.1893      	1228.2872      	1228.3533      	1228.2119      	1228.4235      	1228.3756      	1228.3914      	1228.3549      	1228.4172      	1228.503       	1228.3104      	1228.367       	1228.3761      	1228.4718      	1228.4519      	1228.368       	1228.2635      	1228.2557      	1228.4025      	1228.3591      	1228.3677      	1228.3074      	1228.3566      	1228.3232      	1228.3599      	1228.3245      	1228.3326      	1228.3184      	1228.2927      	1228.312       	1228.3469      	1228.3243      	1228.2698      	1228.3689      	1228.3351      	1228.3599      	1228.3507      	1228.345       	1228.2968      	1228.3257      	1228.2635      	1228.3567      	1228.2738      	1228.3054      	1228.2727      	1228.288       	1228.2991      	1228.2872      	1228.2747      	1228.3309      	1228.2717      	1228.2657      	1228.2694      	1228.2814      	1228.2445      	1228.2489      	1228.2208      	1228.199       	1228.2346      	1228.2101      	1228.2046      	1228.1932      	1228.1625      	1228.1614      	1228.1497      	1228.1437      	1228.0979      	1228.1028      	1228.0929      	1228.0874      	1228.1409      	1228.121       	1228.0867      	1228.1384      	1228.0792      	1228.0941      	1228.0823      	1228.0293      	1228.0839      	1228.08        	1228.0552      	1228.0581      	1228.0427      	1228.0269      	1228.0393      	1228.0363      	1228.0095      	1228.0317      	1227.9467      	1227.9956      	1227.9823      	1227.9836      	
1228.5931      	1228.6323      	1228.5459      	1228.6101      	1228.6125      	1228.5994      	1228.7108      	1228.3007      	1228.6171      	1228.4333      	1228.4727      	1228.5436      	1228.5802      	1228.7341      	1228.6431      	1228.66        	1228.7931      	1228.7029      	1228.8162      	1228.6466      	1228.6387      	1228.6282      	1228.6124      	1228.658       	1228.5612      	1228.6277      	1228.6382      	1228.6587      	1228.6233      	1228.6364      	1228.6235      	1228.576       	1228.6648      	1228.6372      	1228.6105      	1228.6152      	1228.7025      	1228.5948      	1228.6604      	1228.6151      	1228.6136      	1228.5764      	1228.6165      	1228.6259      	1228.6525      	1228.5906      	1228.6088      	1228.6014      	1228.5688      	1228.6042      	1228.5793      	1228.5552      	1228.5897      	1228.5835      	1228.5267      	1228.5945      	1228.5663      	1228.5952      	1228.5835      	1228.5857      	1228.6011      	1228.546       	1228.6161      	1228.5826      	1228.5201      	1228.603       	1228.479       	1228.5159      	1228.4918      	1228.5095      	1228.5293      	1228.4949      	1228.4406      	1228.4308      	1228.4802      	1228.4114      	1228.4397      	1228.446       	1228.4257      	1228.375       	1228.3745      	1228.4336      	1228.3804      	1228.3633      	1228.4008      	1228.3615      	1228.3538      	1228.3696      	1228.3269      	1228.3353      	1228.3644      	1228.296       	1228.3201      	1228.2704      	1228.2706      	1228.4103      	1228.2297      	1228.2421      	1228.2827      	1228.311       	
1228.6165      	1228.6251      	1228.6056      	1228.6072      	1228.5979      	1228.5924      	1228.6558      	1228.5979      	1228.6208      	1228.349       	1228.4557      	1228.702       	1228.5535      	1228.6401      	1228.9591      	1228.7068      	1228.6288      	1228.6775      	1228.6802      	1228.633       	1228.6814      	1228.6542      	1228.6725      	1228.6632      	1228.7167      	1228.6346      	1228.7151      	1228.718       	1228.7059      	1228.6935      	1228.7247      	1228.6582      	1228.7859      	1228.6459      	1228.7527      	1228.6633      	1228.7073      	1228.6796      	1228.718       	1228.7388      	1228.746       	1228.7294      	1228.745       	1228.7244      	1228.7509      	1228.8058      	1228.7136      	1228.7628      	1228.7395      	1228.7733      	1228.7422      	1228.7439      	1228.7556      	1228.7595      	1228.7524      	1228.6945      	1228.7345      	1228.787       	1228.7449      	1228.7413      	1228.7512      	1228.7491      	1228.7451      	1228.7089      	1228.7516      	1228.7496      	1228.6812      	1228.7246      	1228.6536      	1228.7202      	1228.7472      	1228.6462      	1228.6476      	1228.6189      	1228.6099      	1228.6093      	1228.637       	1228.6411      	1228.5902      	1228.59        	1228.5897      	1228.6034      	1228.6077      	1228.5333      	1228.5609      	1228.5841      	1228.5409      	1228.5306      	1228.5266      	1228.563       	1228.5077      	1228.5552      	1228.5073      	1228.5201      	1228.5043      	1228.5525      	1228.5383      	1228.4965      	1228.4509      	1228.468       	
1228.2612      	1228.3065      	1228.2322      	1228.2966      	1228.3158      	1228.2205      	1228.2313      	1228.2493      	1228.2635      	1228.2869      	1228.3259      	1228.2628      	1228.3075      	1228.3176      	1228.3385      	1228.3425      	1228.3243      	1228.3904      	1228.3035      	1228.3408      	1228.317       	1228.3633      	1228.362       	1228.3105      	1228.3667      	1228.3762      	1228.3188      	1228.3602      	1228.3661      	1228.364       	1228.4001      	1228.3429      	1228.3632      	1228.3977      	1228.362       	1228.4172      	1228.396       	1228.3732      	1228.4116      	1228.3925      	1228.3956      	1228.3942      	1228.3771      	1228.3865      	1228.3644      	1228.4105      	1228.3854      	1228.4131      	1228.4194      	1228.4094      	1228.4027      	1228.4159      	1228.3794      	1228.3816      	1228.4064      	1228.3771      	1228.3914      	1228.403       	1228.3992      	1228.3622      	1228.3676      	1228.384       	1228.4095      	1228.3986      	1228.3734      	1228.3732      	1228.3938      	1228.3765      	1228.3618      	1228.3862      	1228.3706      	1228.347       	1228.349       	1228.3317      	1228.3245      	1228.339       	1228.3381      	1228.3307      	1228.3632      	1228.3485      	1228.294       	1228.295       	1228.38        	1228.324       	1228.3254      	1228.3214      	1228.2507      	1228.2964      	1228.297       	1228.3145      	1228.3093      	1228.3147      	1228.3156      	1228.2759      	1228.3134      	1228.2928      	1228.3538      	1228.3187      	1228.3091      	1228.3308      	
1227.9978      	1228.0459      	1228.0631      	1228.0237      	1227.9764      	1228.0289      	1228.049       	1227.9921      	1228.0508      	1228.0978      	1228.0454      	1228.0454      	1228.1133      	1228.129       	1228.1388      	1228.1062      	1228.1117      	1228.148       	1228.121       	1228.1549      	1228.116       	1228.113       	1228.1328      	1228.1368      	1228.1519      	1228.1481      	1228.131       	1228.1652      	1228.1189      	1228.1475      	1228.1337      	1228.1354      	1228.1394      	1228.2031      	1228.1423      	1228.1193      	1228.1495      	1228.1183      	1228.0956      	1228.1632      	1228.1163      	1228.1597      	1228.1333      	1228.1147      	1228.1545      	1228.161       	1228.0862      	1228.1367      	1228.1576      	1228.088       	1228.1023      	1228.1931      	1228.1082      	1228.1606      	1228.1334      	1228.0908      	1228.087       	1228.1213      	1228.0809      	1228.085       	1228.098       	1228.1041      	1228.0526      	1228.0653      	1228.0854      	1228.074       	1228.0908      	1228.1053      	1228.0522      	1228.0405      	1228.0408      	1228.0433      	1227.9713      	1228           	1227.9641      	1227.9852      	1227.967       	1227.9486      	1227.9752      	1227.959       	1227.9158      	1228.0234      	1227.9369      	1227.9901      	1227.9193      	1227.9498      	1227.9196      	1227.8636      	1228.0024      	1227.9056      	1227.9232      	1227.9152      	1227.881       	1227.9413      	1227.9452      	1227.8977      	1227.9291      	1227.929       	1227.9071      	1227.9363      	
1227.7462      	1227.7521      	1227.7627      	1227.789       	1227.727       	1227.7422      	1227.7634      	1227.8032      	1227.7743      	1227.829       	1227.7155      	1227.8243      	1227.7979      	1227.8257      	1227.8422      	1227.8152      	1227.8685      	1227.8693      	1227.9513      	1227.8029      	1227.9899      	1227.9242      	1227.9436      	1227.9296      	1227.9304      	1227.9023      	1227.9751      	1227.9265      	1228.0039      	1227.9792      	1227.9504      	1227.9834      	1227.9757      	1227.9669      	1227.9166      	1227.9923      	1227.955       	1227.9791      	1227.9333      	1228.0493      	1227.9415      	1227.9713      	1228.0057      	1228.0028      	1227.9802      	1228.032       	1228.036       	1227.9845      	1228.0214      	1228.0251      	1227.994       	1227.9868      	1228.0404      	1228.0447      	1228.0276      	1228.0651      	1227.9982      	1227.995       	1227.9517      	1227.9978      	1227.9852      	1227.9651      	1227.9645      	1227.9883      	1227.9711      	1227.9738      	1227.9191      	1227.9802      	1227.9146      	1227.9366      	1227.9343      	1227.8907      	1227.8658      	1227.8833      	1227.8167      	1227.8472      	1227.8499      	1227.8203      	1227.8529      	1227.8469      	1227.7772      	1227.8036      	1227.8322      	1227.8134      	1227.8475      	1227.8223      	1227.7573      	1227.8134      	1227.7617      	1227.7745      	1227.8071      	1227.8475      	1227.8405      	1227.843       	1227.818       	1227.7899      	1227.8376      	1227.7983      	1227.8241      	1227.8469      	
1228.0585      	1228.0536      	1228.1028      	1228.129       	1228.0555      	1228.0371      	1228.1034      	1228.0999      	1228.1008      	1228.0007      	1228.1798      	1228.1257      	1228.1772      	1228.1619      	1228.1356      	1228.1921      	1228.1542      	1228.2186      	1228.2074      	1228.1776      	1228.2173      	1228.2183      	1228.2585      	1228.1757      	1228.2317      	1228.219       	1228.2517      	1228.2745      	1228.2578      	1228.1948      	1228.2002      	1228.1877      	1228.2031      	1228.2445      	1228.1783      	1228.1985      	1228.1719      	1228.1825      	1228.1853      	1228.1705      	1228.199       	1228.1707      	1228.1584      	1228.1963      	1228.1615      	1228.1893      	1228.2078      	1228.148       	1228.158       	1228.1011      	1228.1638      	1228.128       	1228.0869      	1228.1044      	1228.0643      	1228.0887      	1228.0684      	1228.0817      	1228.0754      	1228.112       	1228.0375      	1228.0442      	1228.063       	1228.0205      	1228.0303      	1227.9783      	1227.9852      	1227.998       	1227.9448      	1227.9692      	1227.9663      	1227.9628      	1227.9253      	1227.9048      	1227.9012      	1227.842       	1227.9331      	1227.8667      	1227.9291      	1227.8938      	1227.9331      	1227.8335      	1227.898       	1227.8655      	1227.8749      	1227.8796      	1227.8849      	1227.8562      	1227.8556      	1227.8247      	1227.8345      	1227.8608      	1227.8085      	1227.8716      	1227.8013      	1227.8722      	1227.881       	1227.8993      	1227.8615      	1227.8767      	
1228.2793      	1228.2937      	1228.3466      	1228.3738      	1228.3333      	1228.3391      	1228.321       	1228.37        	1228.399       	1228.2273      	1228.3291      	1228.3224      	1228.4044      	1228.3871      	1228.3417      	1228.4103      	1228.3402      	1228.3728      	1228.3723      	1228.377       	1228.3904      	1228.3445      	1228.4271      	1228.4333      	1228.3708      	1228.3723      	1228.3918      	1228.3665      	1228.3553      	1228.3456      	1228.3427      	1228.2766      	1228.3218      	1228.3439      	1228.3647      	1228.2905      	1228.3063      	1228.2758      	1228.2596      	1228.2755      	1228.294       	1228.28        	1228.2643      	1228.2677      	1228.2278      	1228.3158      	1228.3236      	1228.2711      	1228.2983      	1228.1853      	1228.314       	1228.192       	1228.1674      	1228.2468      	1228.1722      	1228.144       	1228.1592      	1228.1534      	1228.1512      	1228.1233      	1228.1448      	1228.0996      	1228.0972      	1228.0552      	1228.1207      	1228.0837      	1228.0627      	1228.0587      	1228.0255      	1228.0515      	1228.0652      	1228.0446      	1228.0256      	1228.0194      	1227.9734      	1227.941       	1227.9761      	1227.9641      	1227.9458      	1227.9587      	1227.9382      	1227.9171      	1227.9318      	1227.9551      	1227.9774      	1227.9612      	1227.9285      	1227.9595      	1227.9474      	1227.9447      	1227.9866      	1227.9628      	1227.952       	1227.9344      	1227.9833      	1227.9767      	1228.0115      	1227.9918      	1227.94        	1227.9608      	
1228.3359      	1228.3717      	1228.3451      	1228.3403      	1228.3324      	1228.3713      	1228.3214      	1228.2828      	1228.3484      	1228.3596      	1228.3274      	1228.3176      	1228.3706      	1228.3793      	1228.4053      	1228.3998      	1228.3679      	1228.3892      	1228.382       	1228.4323      	1228.4532      	1228.4188      	1228.4286      	1228.4014      	1228.3658      	1228.4478      	1228.4019      	1228.4574      	1228.411       	1228.449       	1228.4011      	1228.4333      	1228.3807      	1228.42        	1228.4185      	1228.4424      	1228.4158      	1228.4021      	1228.3663      	1228.3553      	1228.3615      	1228.4175      	1228.389       	1228.3983      	1228.3888      	1228.4005      	1228.4329      	1228.4434      	1228.4419      	1228.4137      	1228.393       	1228.3966      	1228.3723      	1228.3937      	1228.3181      	1228.3807      	1228.4097      	1228.3403      	1228.3599      	1228.3518      	1228.3729      	1228.3523      	1228.339       	1228.3732      	1228.2911      	1228.3137      	1228.2855      	1228.2788      	1228.2703      	1228.2709      	1228.301       	1228.2749      	1228.2548      	1228.2745      	1228.241       	1228.2013      	1228.2631      	1228.2272      	1228.3014      	1228.2903      	1228.2977      	1228.227       	1228.3362      	1228.2461      	1228.244       	1228.2946      	1228.2767      	1228.3143      	1228.2856      	1228.271       	1228.31        	1228.3068      	1228.3019      	1228.3275      	1228.3323      	1228.3501      	1228.388       	1228.4158      	1228.2495      	1228.0005      	
1228.3123      	1228.3287      	1228.3022      	1228.3368      	1228.3743      	1228.3345      	1228.3192      	1228.3306      	1228.3458      	1228.3198      	1228.3401      	1228.3438      	1228.4052      	1228.3564      	1228.4673      	1228.4083      	1228.3431      	1228.3914      	1228.4537      	1228.365       	1228.4698      	1228.4277      	1228.4075      	1228.393       	1228.3975      	1228.4358      	1228.3925      	1228.3885      	1228.3787      	1228.3967      	1228.3777      	1228.371       	1228.4143      	1228.3517      	1228.395       	1228.4136      	1228.3973      	1228.4023      	1228.3912      	1228.3734      	1228.3639      	1228.3877      	1228.4052      	1228.3688      	1228.3762      	1228.3859      	1228.4852      	1228.437       	1228.4354      	1228.3345      	1228.4495      	1228.3905      	1228.4109      	1228.401       	1228.4089      	1228.3737      	1228.3788      	1228.3193      	1228.2614      	1228.3275      	1228.2548      	1228.2954      	1228.2517      	1228.256       	1228.2311      	1228.2544      	1228.2201      	1228.24        	1228.2773      	1228.2279      	1228.2189      	1228.228       	1228.2273      	1228.1948      	1228.1824      	1228.1871      	1228.1792      	1228.1995      	1228.1444      	1228.2267      	1228.223       	1228.1805      	1228.2338      	1228.2153      	1228.2162      	1228.2441      	1228.2118      	1228.1973      	1228.2632      	1228.2786      	1228.2382      	1228.2645      	1228.2521      	1228.2727      	1228.3196      	1227.8019      	1227.8164      	1227.9984      	1228.0782      	1228.1804      	
1228.5936      	1228.5676      	1228.5973      	1228.6365      	1228.5887      	1228.6165      	1228.5825      	1228.621       	1228.5858      	1228.6473      	1228.523       	1228.6276      	1228.6155      	1228.704       	1228.6757      	1228.6501      	1228.6814      	1228.6282      	1228.6931      	1228.6516      	1228.6602      	1228.6737      	1228.6757      	1228.6698      	1228.6552      	1228.6356      	1228.6355      	1228.6384      	1228.6399      	1228.6239      	1228.5999      	1228.6329      	1228.5763      	1228.5741      	1228.6207      	1228.6046      	1228.5927      	1228.6111      	1228.5481      	1228.5663      	1228.5419      	1228.553       	1228.5748      	1228.5897      	1228.5396      	1228.5173      	1228.5886      	1228.5431      	1228.5737      	1228.5034      	1228.5293      	1228.5138      	1228.5168      	1228.5264      	1228.5106      	1228.4886      	1228.4932      	1228.4016      	1228.46        	1228.4084      	1228.429       	1228.4069      	1228.46        	1228.4198      	1228.4471      	1228.4197      	1228.4014      	1228.4003      	1228.4127      	1228.384       	1228.4054      	1228.4105      	1228.3904      	1228.385       	1228.3634      	1228.3188      	1228.3759      	1228.3412      	1228.3452      	1228.3723      	1228.3564      	1228.3335      	1228.3118      	1228.3401      	1228.389       	1228.3105      	1228.296       	1228.4083      	1228.4116      	1228.382       	1228.3772      	1227.98        	1228.2424      	1228.2732      	1228.3363      	1228.1884      	1228.311       	1228.3243      	1228.4016      	1228.4668      	
1228.7739      	1228.7478      	1228.8396      	1228.8088      	1228.778       	1228.841       	1228.7671      	1228.7834      	1228.8269      	1228.8799      	1228.8948      	1228.8507      	1228.7823      	1228.9266      	1228.908       	1228.8785      	1228.8751      	1228.8984      	1228.9049      	1228.9417      	1228.9175      	1228.924       	1228.887       	1228.9191      	1228.9204      	1228.938       	1228.9325      	1228.954       	1228.9077      	1228.9152      	1228.931       	1228.9136      	1228.8812      	1228.9393      	1228.9392      	1228.9094      	1228.9019      	1228.9259      	1228.932       	1228.8923      	1228.9426      	1228.8832      	1228.9241      	1228.8835      	1228.9271      	1228.8947      	1228.9132      	1228.921       	1228.9403      	1228.8817      	1228.937       	1228.9375      	1228.8805      	1228.9213      	1228.8654      	1228.8524      	1228.9122      	1228.8503      	1228.8602      	1228.8243      	1228.8805      	1228.8535      	1228.856       	1228.8485      	1228.8167      	1228.8021      	1228.7645      	1228.8114      	1228.7776      	1228.7322      	1228.7883      	1228.75        	1228.8223      	1228.7765      	1228.8165      	1228.7776      	1228.7263      	1228.8147      	1228.7944      	1228.8138      	1228.771       	1228.7771      	1228.7866      	1228.8716      	1228.7227      	1228.5089      	1228.7358      	1228.6434      	1228.7206      	1228.7148      	1228.6064      	1228.7081      	1228.8068      	1228.8605      	1228.9058      	1228.8989      	1228.9404      	1228.9105      	1228.9177      	1228.9552      	
1228.6359      	1228.6538      	1228.6521      	1228.6438      	1228.6642      	1228.663       	1228.681       	1228.7103      	1228.7097      	1228.6368      	1228.7147      	1228.6726      	1228.6543      	1228.7096      	1228.6906      	1228.662       	1228.7275      	1228.7183      	1228.7264      	1228.6925      	1228.6805      	1228.7311      	1228.7109      	1228.7322      	1228.6792      	1228.6886      	1228.716       	1228.7063      	1228.7164      	1228.7019      	1228.6775      	1228.6913      	1228.6127      	1228.7284      	1228.7087      	1228.632       	1228.6918      	1228.7018      	1228.7314      	1228.6964      	1228.7046      	1228.7228      	1228.6771      	1228.7032      	1228.6964      	1228.7089      	1228.6815      	1228.6836      	1228.7168      	1228.7075      	1228.655       	1228.6439      	1228.6685      	1228.6208      	1228.6106      	1228.677       	1228.6711      	1228.6476      	1228.6306      	1228.6283      	1228.6251      	1228.5768      	1228.6073      	1228.6227      	1228.5721      	1228.6136      	1228.6007      	1228.6534      	1228.5955      	1228.6199      	1228.6523      	1228.5994      	1228.5936      	1228.6072      	1228.63        	1228.5875      	1228.5825      	1228.5305      	1228.616       	1228.6245      	1228.5298      	1228.6185      	1228.7126      	1228.1245      	1228.3192      	1228.4872      	1228.6415      	1228.6484      	1228.701       	1228.7572      	1228.6215      	1228.7593      	1228.7316      	1228.7389      	1228.7346      	1228.8354      	1228.8287      	1228.7548      	1228.6887      	1228.7069      	
1228.7769      	1228.7739      	1228.7736      	1228.821       	1228.7994      	1228.7983      	1228.8027      	1228.8306      	1228.8027      	1228.7931      	1228.753       	1228.7959      	1228.7908      	1228.818       	1228.8157      	1228.8306      	1228.8774      	1228.8425      	1228.8362      	1228.8287      	1228.77        	1228.8346      	1228.7561      	1228.7644      	1228.8326      	1228.7596      	1228.7759      	1228.802       	1228.796       	1228.8104      	1228.8335      	1228.8485      	1228.811       	1228.8368      	1228.8303      	1228.8031      	1228.766       	1228.7668      	1228.7747      	1228.788       	1228.802       	1228.7736      	1228.7981      	1228.7949      	1228.7681      	1228.7739      	1228.7062      	1228.7804      	1228.7373      	1228.7605      	1228.8049      	1228.7742      	1228.6991      	1228.7423      	1228.723       	1228.7151      	1228.7189      	1228.6802      	1228.6747      	1228.7277      	1228.6375      	1228.644       	1228.66        	1228.6533      	1228.6428      	1228.644       	1228.6268      	1228.6465      	1228.6938      	1228.6835      	1228.6694      	1228.6165      	1228.6409      	1228.5745      	1228.6362      	1228.6525      	1228.6233      	1228.6604      	1228.3026      	1228.5216      	1228.4462      	1228.4739      	1228.648       	1228.6052      	1228.5322      	1228.6414      	1228.6848      	1228.7169      	1228.6755      	1228.7362      	1228.7423      	1228.7498      	1228.7869      	1228.8173      	1228.8041      	1228.8169      	1228.81        	1228.8163      	1228.8046      	1228.8145      	
1229.495       	1229.4784      	1229.4723      	1229.3904      	1229.4841      	1229.4287      	1229.4816      	1229.4729      	1229.428       	1229.4727      	1229.4728      	1229.4724      	1229.4581      	1229.4332      	1229.4962      	1229.4935      	1229.47        	1229.4431      	1229.472       	1229.4963      	1229.4374      	1229.4921      	1229.4656      	1229.4249      	1229.4257      	1229.4432      	1229.4247      	1229.4016      	1229.401       	1229.4598      	1229.3785      	1229.3722      	1229.4032      	1229.409       	1229.3787      	1229.3916      	1229.3691      	1229.4478      	1229.3058      	1229.4006      	1229.3889      	1229.4276      	1229.3752      	1229.389       	1229.4061      	1229.3956      	1229.3883      	1229.4019      	1229.3755      	1229.3735      	1229.3712      	1229.363       	1229.3612      	1229.3304      	1229.2638      	1229.3625      	1229.2362      	1229.3165      	1229.211       	1229.2911      	1229.247       	1229.2515      	1229.1698      	1229.2114      	1229.1737      	1229.2064      	1229.1884      	1229.2013      	1229.2041      	1229.2017      	1229.2274      	1229.1741      	1229.2307      	1229.169       	1229.1912      	1229.256       	1228.6344      	1228.654       	1229.0187      	1229.1462      	1229.1382      	1229.1654      	1229.2258      	1229.2366      	1229.2981      	1229.2579      	1229.2831      	1229.2869      	1229.3247      	1229.2239      	1229.2528      	1229.2408      	1229.2787      	1229.2114      	1229.2374      	1229.25        	1229.2563      	1229.2611      	1229.2634      	1229.2487      	
1229.1792      	1229.2268      	1229.2319      	1229.2089      	1229.2358      	1229.2407      	1229.2538      	1229.3074      	1229.2351      	1229.2378      	1229.2512      	1229.2946      	1229.2628      	1229.1794      	1229.303       	1229.3136      	1229.2775      	1229.3037      	1229.3191      	1229.3142      	1229.3097      	1229.3302      	1229.2882      	1229.2654      	1229.375       	1229.3376      	1229.3446      	1229.2502      	1229.3486      	1229.2917      	1229.329       	1229.2761      	1229.2953      	1229.3322      	1229.2534      	1229.3771      	1229.2094      	1229.3041      	1229.3218      	1229.3402      	1229.2683      	1229.3916      	1229.3654      	1229.3206      	1229.3247      	1229.3964      	1229.3175      	1229.3553      	1229.3188      	1229.3921      	1229.3468      	1229.3401      	1229.3237      	1229.3992      	1229.3173      	1229.3269      	1229.3088      	1229.2985      	1229.3059      	1229.269       	1229.2886      	1229.2811      	1229.2632      	1229.2635      	1229.2651      	1229.286       	1229.2899      	1229.2979      	1229.2848      	1229.2834      	1229.3312      	1229.2833      	1229.3385      	1229.3229      	1229.3458      	1228.8372      	1229.0654      	1229.1342      	1229.2863      	1229.413       	1229.4572      	1229.4369      	1229.4583      	1229.4746      	1229.5015      	1229.4656      	1229.4893      	1229.5177      	1229.5338      	1229.5538      	1229.56        	1229.5538      	1229.5536      	1229.5792      	1229.6108      	1229.6355      	1229.5979      	1229.5985      	1229.5917      	1229.5714      	
1228.3171      	1228.4075      	1228.4402      	1228.4033      	1228.4331      	1228.48        	1228.4675      	1228.4504      	1228.4851      	1228.4731      	1228.5272      	1228.4856      	1228.4872      	1228.4519      	1228.504       	1228.4773      	1228.4718      	1228.4875      	1228.4838      	1228.4989      	1228.5293      	1228.5183      	1228.5383      	1228.5323      	1228.539       	1228.5165      	1228.533       	1228.5623      	1228.5363      	1228.5375      	1228.5256      	1228.5212      	1228.4901      	1228.493       	1228.5461      	1228.5947      	1228.4729      	1228.5233      	1228.6171      	1228.535       	1228.5339      	1228.5361      	1228.5598      	1228.5493      	1228.5363      	1228.5239      	1228.5796      	1228.5925      	1228.5061      	1228.5923      	1228.5564      	1228.562       	1228.5333      	1228.5808      	1228.5553      	1228.562       	1228.5146      	1228.5327      	1228.5839      	1228.5199      	1228.4963      	1228.5245      	1228.4923      	1228.5402      	1228.535       	1228.5737      	1228.4856      	1228.5061      	1228.5444      	1228.5259      	1228.4695      	1228.6261      	1228.573       	1228.6152      	1228.3395      	1228.2031      	1228.3552      	1228.4152      	1228.5173      	1228.6462      	1228.6777      	1228.7004      	1228.6998      	1228.6946      	1228.6926      	1228.7424      	1228.7589      	1228.7157      	1228.7324      	1228.7516      	1228.7609      	1228.758       	1228.8036      	1228.9661      	1228.6398      	1228.8016      	1228.8513      	1228.7814      	1228.8016      	1228.8602      	
1228.2684      	1228.297       	1228.4187      	1228.3385      	1228.327       	1228.386       	1228.3533      	1228.3485      	1228.3806      	1228.3333      	1228.3403      	1228.4388      	1228.3875      	1228.3209      	1228.3586      	1228.3817      	1228.3644      	1228.3958      	1228.3678      	1228.3347      	1228.3918      	1228.3761      	1228.3698      	1228.3828      	1228.3777      	1228.3687      	1228.3627      	1228.413       	1228.3694      	1228.3391      	1228.3289      	1228.3396      	1228.278       	1228.3528      	1228.3163      	1228.3564      	1228.379       	1228.3009      	1228.3202      	1228.3792      	1228.3169      	1228.3228      	1228.254       	1228.3477      	1228.348       	1228.2872      	1228.3628      	1228.2937      	1228.3728      	1228.3198      	1228.3376      	1228.2587      	1228.2908      	1228.2195      	1228.3346      	1228.2516      	1228.2186      	1228.2892      	1228.222       	1228.2566      	1228.23        	1228.2646      	1228.1737      	1228.3116      	1228.2496      	1228.2639      	1228.2792      	1228.2834      	1228.3292      	1228.2524      	1228.3114      	1228.3132      	1228.2991      	1228.3569      	1228.0369      	1227.8665      	1228.0927      	1228.1332      	1228.1277      	1228.3429      	1228.3673      	1228.3894      	1228.3557      	1228.3843      	1228.4188      	1228.4104      	1228.4374      	1228.4224      	1228.4581      	1228.4427      	1228.4542      	1228.4452      	1228.4702      	1228.455       	1228.477       	1228.5322      	1228.4575      	1228.5175      	1228.5139      	1228.4976      	
1228.0173      	1227.9973      	1228.0736      	1228.0272      	1228.1052      	1228.0319      	1228.0343      	1228.0775      	1228.0441      	1228.0962      	1227.998       	1228.025       	1228.0463      	1228.0087      	1228.0425      	1228.0413      	1228.032       	1228.0115      	1228.0157      	1228.0001      	1228.0482      	1228.009       	1227.9988      	1228.0337      	1228.0038      	1228.0206      	1228.0063      	1227.9958      	1228.0731      	1228.0032      	1228.0414      	1227.9922      	1227.9509      	1227.9889      	1227.9805      	1228.0208      	1227.9846      	1228.0374      	1228.0215      	1227.9872      	1227.9409      	1227.9934      	1227.9785      	1227.913       	1227.9851      	1227.9867      	1227.9442      	1227.9885      	1227.9457      	1227.9988      	1228.0427      	1227.9956      	1227.9385      	1227.9114      	1227.9364      	1227.9474      	1227.8938      	1227.9637      	1227.9272      	1227.9237      	1227.9286      	1227.9073      	1227.9158      	1227.9368      	1227.9178      	1227.9692      	1227.8925      	1227.9543      	1227.983       	1227.905       	1227.9868      	1227.9735      	1227.9552      	1228.0386      	1227.9619      	1227.4619      	1227.7429      	1227.8958      	1227.8927      	1228.0392      	1228.0607      	1228.1118      	1228.072       	1228.1283      	1228.0742      	1228.089       	1228.113       	1228.147       	1228.1417      	1228.178       	1228.1384      	1228.1675      	1228.2284      	1228.1877      	1228.2114      	1228.2155      	1228.2032      	1228.2004      	1228.2186      	1228.217       	
1228.1721      	1228.2046      	1228.1675      	1228.1875      	1228.1842      	1228.2046      	1228.1727      	1228.1898      	1228.2274      	1228.2153      	1228.1759      	1228.156       	1228.1473      	1228.2241      	1228.0275      	1228.2063      	1228.1687      	1228.1326      	1228.0559      	1228.16        	1228.1229      	1228.1494      	1228.1882      	1228.1362      	1228.0735      	1228.1776      	1228.1146      	1228.0687      	1228.1404      	1228.0323      	1228.1228      	1228.1036      	1228.1354      	1228.0782      	1228.0707      	1228.123       	1228.0809      	1228.0874      	1228.0724      	1228.0499      	1228.0659      	1228.0645      	1227.9618      	1228.128       	1228.0577      	1228.1052      	1228.0483      	1228.0265      	1228.0261      	1228.0957      	1228.0308      	1228.0298      	1228.0249      	1228.0432      	1227.9688      	1227.9911      	1227.8962      	1228.0918      	1227.9915      	1228.013       	1227.9553      	1227.908       	1227.9835      	1227.9966      	1227.9946      	1227.9604      	1227.9924      	1227.9685      	1228.0604      	1227.9784      	1228.0278      	1227.9949      	1228.095       	1228.0403      	1228.0928      	1227.5696      	1227.7573      	1227.9468      	1228.02        	1228.1014      	1228.1746      	1228.1399      	1228.1752      	1228.1892      	1228.1478      	1228.2351      	1228.2087      	1228.238       	1228.2378      	1228.2422      	1228.1731      	1228.2783      	1228.2673      	1228.3032      	1228.2316      	1228.3268      	1228.2711      	1228.3579      	1228.1743      	1228.0513      	
1228.1259      	1228.199       	1228.2117      	1228.2239      	1228.2089      	1228.1833      	1228.1854      	1228.149       	1228.2382      	1228.2089      	1228.1792      	1228.224       	1228.2152      	1228.2423      	1228.1548      	1228.2234      	1228.1682      	1228.2192      	1228.2089      	1228.2306      	1228.2205      	1228.2423      	1228.1921      	1228.2235      	1228.2235      	1228.2064      	1228.2041      	1228.2206      	1228.257       	1228.2417      	1228.1847      	1228.2734      	1228.221       	1228.1592      	1228.2483      	1228.2117      	1228.2031      	1228.1901      	1228.1385      	1228.1749      	1228.1682      	1228.2542      	1228.1792      	1228.2162      	1228.2292      	1228.2498      	1228.2311      	1228.2306      	1228.1958      	1228.2667      	1228.2461      	1228.1991      	1228.1641      	1228.2175      	1228.1636      	1228.2214      	1228.1929      	1228.1174      	1228.1809      	1228.1687      	1228.1646      	1228.2065      	1228.1522      	1228.1937      	1228.1998      	1228.1814      	1228.2251      	1228.2267      	1228.2292      	1228.2404      	1228.2205      	1228.261       	1228.2924      	1228.2859      	1228.363       	1227.7505      	1228.0833      	1228.1008      	1228.2004      	1228.1409      	1228.3539      	1228.3749      	1228.394       	1228.3687      	1228.3795      	1228.4464      	1228.4056      	1228.4481      	1228.3983      	1228.4692      	1228.4192      	1228.4642      	1228.4106      	1228.4469      	1228.4911      	1228.4573      	1228.4475      	1228.456       	1228.4392      	1228.4584      	
1228.0044      	1227.9415      	1227.9934      	1227.9762      	1227.952       	1227.9501      	1227.9805      	1227.9825      	1227.9379      	1227.9055      	1228.0063      	1227.9319      	1227.9641      	1227.9497      	1227.8553      	1227.9337      	1227.949       	1227.9148      	1227.9341      	1227.9185      	1227.928       	1227.9612      	1227.9666      	1227.9556      	1227.9393      	1227.9965      	1227.9338      	1227.9348      	1227.9816      	1227.9071      	1227.9347      	1227.9851      	1227.9164      	1227.9628      	1227.9233      	1227.9214      	1227.9442      	1227.897       	1227.9789      	1228.0358      	1227.9543      	1227.9591      	1227.9669      	1227.9518      	1227.6023      	1227.6749      	1227.7429      	1227.8787      	1227.9552      	1228.0162      	1228.0234      	1227.9634      	1227.8435      	1227.9448      	1227.924       	1227.8407      	1227.9121      	1227.886       	1227.871       	1227.9637      	1227.8722      	1227.9663      	1227.922       	1227.8732      	1228.0076      	1227.922       	1227.9702      	1228.0333      	1227.9592      	1227.947       	1228.0298      	1228.019       	1228.0132      	1228.0411      	1228.0259      	1227.8663      	1227.5822      	1227.8435      	1227.9237      	1227.9487      	1228.1244      	1228.2014      	1228.1218      	1228.2224      	1228.1697      	1228.2378      	1228.1959      	1228.31        	1228.2823      	1228.2385      	1228.3037      	1228.3436      	1228.3156      	1228.2837      	1228.289       	1228.3054      	1228.2351      	1228.2922      	1228.2606      	1228.2319      	
1228.0366      	1227.9911      	1228.0018      	1227.9939      	1227.9956      	1227.9747      	1227.9448      	1227.9607      	1228.0286      	1227.954       	1227.9601      	1227.9448      	1227.9309      	1227.8962      	1227.9127      	1227.9058      	1227.8722      	1227.9318      	1227.906       	1227.9115      	1227.9033      	1227.9388      	1227.9098      	1227.878       	1227.9048      	1227.9633      	1227.9298      	1227.9082      	1227.8784      	1227.9036      	1227.8992      	1227.9224      	1227.9136      	1227.862       	1227.8484      	1227.9436      	1227.9182      	1227.9375      	1227.8894      	1227.7188      	1227.6968      	1227.7965      	1227.6296      	1227.7446      	1227.7255      	1227.7422      	1227.8312      	1227.7775      	1227.9026      	1227.9515      	1228.0786      	1228.0411      	1228.3463      	1227.8436      	1227.839       	1227.8231      	1227.8138      	1227.8417      	1227.8114      	1227.7168      	1227.8666      	1227.8898      	1227.8774      	1227.8765      	1227.8638      	1227.7917      	1227.8628      	1227.9369      	1227.8826      	1227.9347      	1227.8599      	1227.9153      	1227.9512      	1227.9492      	1228.0188      	1227.7961      	1227.4302      	1227.7311      	1227.8967      	1227.8599      	1227.8711      	1228.16        	1228.0769      	1228.0092      	1227.9949      	1228.1068      	1228.0994      	1228.1132      	1228.0754      	1228.0991      	1228.0247      	1228.1362      	1228.1235      	1228.1025      	1228.0707      	1228.097       	1228.1069      	1228.0936      	1228.1022      	1228.154       	
1228.0088      	1228.0315      	1228.0441      	1228.0032      	1227.9923      	1228.0095      	1227.937       	1227.9978      	1227.9879      	1227.99        	1228.0596      	1227.9188      	1227.9738      	1227.9369      	1227.9419      	1227.8848      	1227.952       	1227.9377      	1228.0034      	1227.9272      	1227.994       	1227.8986      	1227.9713      	1227.9026      	1227.9408      	1227.9705      	1227.927       	1227.9275      	1227.9247      	1227.9153      	1227.9196      	1227.9899      	1227.8677      	1227.9636      	1227.939       	1228.0192      	1227.801       	1227.5812      	1227.6163      	1227.716       	1227.7671      	1227.8684      	1227.8182      	1227.8248      	1227.8673      	1227.9308      	1227.8251      	1227.9253      	1227.8881      	1227.9272      	1228.1307      	1228.1373      	1228.3569      	1227.9734      	1227.878       	1227.8528      	1227.8505      	1227.8175      	1227.8448      	1227.8073      	1227.9169      	1227.7924      	1227.9602      	1227.8723      	1227.8752      	1227.861       	1227.8961      	1227.8679      	1227.9729      	1227.9655      	1227.8617      	1227.9645      	1227.9537      	1228.0018      	1228.0365      	1228.0173      	1227.4647      	1227.7892      	1227.8239      	1227.9         	1227.9618      	1228.0507      	1228.1272      	1228.0388      	1228.1399      	1228.0917      	1228.0693      	1228.1222      	1228.1456      	1228.0868      	1228.0897      	1228.1238      	1228.0934      	1228.2024      	1228.0999      	1228.0951      	1228.1804      	1228.0863      	1227.9409      	1227.9702      	
1228.1887      	1228.2411      	1228.2063      	1228.1788      	1228.2284      	1228.1648      	1228.2687      	1228.1552      	1228.1606      	1228.1832      	1228.1447      	1228.1388      	1228.1378      	1228.0894      	1228.148       	1228.0782      	1228.1072      	1228.0988      	1228.1536      	1228.1263      	1228.1232      	1228.1024      	1228.0925      	1228.1155      	1228.1102      	1228.0931      	1228.0956      	1228.1252      	1228.1554      	1228.0955      	1228.1086      	1228.2362      	1227.715       	1227.8326      	1227.859       	1228.0271      	1227.9122      	1227.978       	1228.0176      	1228.1088      	1228.0583      	1228.0255      	1228.0441      	1228.1908      	1228.1058      	1228.0767      	1228.2267      	1227.9701      	1228.0132      	1228.1115      	1228.2087      	1228.2725      	1228.4943      	1228.274       	1228.0994      	1228.0786      	1228.0168      	1228.061       	1228.046       	1228.0884      	1228.1178      	1228.0591      	1228.0758      	1228.0996      	1228.0898      	1228.0782      	1228.1063      	1228.1447      	1228.1259      	1228.2498      	1228.1526      	1228.1814      	1228.1477      	1228.1161      	1228.2196      	1228.2186      	1227.844       	1227.8413      	1227.9739      	1228.0876      	1228.0824      	1228.2267      	1228.2324      	1228.2515      	1228.2782      	1228.1934      	1228.2979      	1228.3445      	1228.2394      	1228.2754      	1228.3099      	1228.2749      	1228.2239      	1228.248       	1228.3292      	1228.3439      	1228.3832      	1228.1444      	1228.1022      	1228.2825      	
1228.1206      	1228.1199      	1228.128       	1228.1489      	1228.1248      	1228.108       	1228.0977      	1228.122       	1228.07        	1228.118       	1228.0743      	1228.0648      	1228.0854      	1228.0723      	1228.0913      	1228.0497      	1228.0242      	1228.0535      	1228.0701      	1228.0636      	1228.1321      	1228.0444      	1228.045       	1228.1248      	1228.0715      	1228.0404      	1228.0876      	1228.1228      	1227.6759      	1227.8228      	1227.7942      	1228.0154      	1227.7952      	1228.0428      	1228.0293      	1228.1288      	1228.0819      	1228.1179      	1228.1277      	1228.1046      	1228.1022      	1228.0568      	1228.1033      	1228.1167      	1228.0334      	1228.1407      	1228.028       	1228.1108      	1228.1344      	1228.189       	1228.2524      	1228.2814      	1228.4445      	1228.3643      	1228.1791      	1228.0724      	1228.0725      	1228.0068      	1228.1151      	1228.078       	1228.0181      	1228.1316      	1228.1392      	1228.1879      	1228.1351      	1228.1847      	1228.187       	1228.2131      	1228.2368      	1228.2017      	1228.2335      	1228.2097      	1228.3182      	1228.2023      	1228.2766      	1228.3442      	1228.0583      	1227.9073      	1227.9651      	1228.1053      	1228.1631      	1228.225       	1228.3622      	1228.3403      	1228.398       	1228.3374      	1228.2678      	1228.3003      	1228.311       	1228.3528      	1228.3848      	1228.364       	1228.3446      	1228.3629      	1228.3484      	1228.3458      	1228.3654      	1228.2952      	1228.25        	1228.2745      	
1228.0798      	1228.0314      	1228.0365      	1228.004       	1228.0195      	1227.968       	1227.9764      	1227.9761      	1227.9108      	1228.0043      	1227.9589      	1227.9539      	1227.9539      	1227.9526      	1227.9167      	1227.9343      	1227.8833      	1227.9647      	1227.9113      	1228.0072      	1227.888       	1227.9825      	1227.9758      	1227.8542      	1227.6471      	1227.6066      	1227.7843      	1227.7286      	1227.832       	1227.9617      	1227.9198      	1227.9521      	1227.9064      	1227.9587      	1227.8849      	1227.9409      	1227.9261      	1228.0245      	1227.9374      	1227.9436      	1227.9155      	1228.0378      	1227.9908      	1227.9851      	1227.9677      	1227.9387      	1227.9406      	1227.9534      	1228.0093      	1227.9747      	1228.0854      	1228.1348      	1228.2146      	1228.2327      	1228.0062      	1227.9089      	1227.9016      	1227.9398      	1227.91        	1227.9393      	1227.9799      	1227.9587      	1227.9529      	1227.9926      	1227.966       	1228.0037      	1228.0317      	1227.9542      	1227.997       	1228.126       	1227.9829      	1228.0526      	1228.0869      	1228.0605      	1228.0858      	1228.1343      	1227.9529      	1227.7405      	1227.9233      	1227.8611      	1227.9191      	1228.078       	1228.0936      	1228.2704      	1228.1322      	1228.1078      	1228.2896      	1228.1615      	1228.1636      	1228.1628      	1228.1716      	1228.2869      	1228.1179      	1228.2118      	1228.2051      	1228.2194      	1228.2067      	1228.1727      	1228.1761      	1228.1448      	
1227.6774      	1227.7482      	1227.7267      	1227.8234      	1227.7434      	1227.7183      	1227.7081      	1227.5591      	1227.7515      	1227.6799      	1227.6968      	1227.6122      	1227.5709      	1227.7362      	1227.6931      	1227.649       	1227.5529      	1227.6647      	1227.749       	1227.6393      	1227.4818      	1227.4797      	1227.4097      	1227.5234      	1227.5242      	1227.7045      	1227.7042      	1227.6709      	1227.7035      	1227.7529      	1227.7109      	1227.6888      	1227.7046      	1227.7325      	1227.7051      	1227.714       	1227.7151      	1227.752       	1227.7274      	1227.7216      	1227.7382      	1227.7258      	1227.7743      	1227.7303      	1227.7094      	1227.7452      	1227.744       	1227.7214      	1227.7606      	1227.6678      	1227.758       	1227.9609      	1227.9861      	1228.2207      	1227.9099      	1227.6962      	1227.7838      	1227.7268      	1227.7407      	1227.7522      	1227.7808      	1227.7588      	1227.8047      	1227.8156      	1227.8221      	1227.813       	1227.8707      	1227.8511      	1227.847       	1227.7987      	1227.9022      	1227.9337      	1227.8469      	1227.8728      	1227.9647      	1228.0118      	1227.9895      	1227.5215      	1227.6647      	1227.7566      	1227.782       	1227.8464      	1227.9304      	1228.0658      	1227.9586      	1228.0315      	1227.9901      	1228.0419      	1228.047       	1227.9714      	1227.9786      	1228.0846      	1228.0514      	1228.0088      	1227.9773      	1228.104       	1227.9756      	1228.0233      	1228.0822      	1228.0607      	
1227.6812      	1227.6147      	1227.6104      	1227.6334      	1227.5289      	1227.6077      	1227.5537      	1227.6112      	1227.5466      	1227.6241      	1227.5399      	1227.5455      	1227.615       	1227.5754      	1227.5994      	1227.6637      	1227.1847      	1227.0746      	1227.4419      	1227.5105      	1227.4263      	1227.5416      	1227.4464      	1227.6937      	1227.6014      	1227.6075      	1227.6157      	1227.6365      	1227.5704      	1227.6584      	1227.5585      	1227.609       	1227.7549      	1227.5109      	1227.6473      	1227.5521      	1227.546       	1227.6815      	1227.5255      	1227.6097      	1227.6533      	1227.5643      	1227.6115      	1227.5675      	1227.5527      	1227.5592      	1227.5149      	1227.6503      	1227.5637      	1227.6063      	1227.6427      	1227.6919      	1227.7732      	1227.9183      	1227.8455      	1227.6039      	1227.5885      	1227.5564      	1227.6088      	1227.5646      	1227.5908      	1227.5879      	1227.56        	1227.5662      	1227.5981      	1227.6173      	1227.6545      	1227.6841      	1227.718       	1227.7693      	1227.6658      	1227.675       	1227.7142      	1227.7842      	1227.7368      	1227.7266      	1227.8953      	1227.3013      	1227.5623      	1227.424       	1227.6029      	1227.7054      	1227.7642      	1227.8435      	1227.767       	1227.8383      	1227.7349      	1227.7991      	1227.8036      	1227.7848      	1227.7489      	1227.8442      	1227.875       	1227.781       	1227.7064      	1227.8319      	1227.8517      	1227.8079      	1227.7931      	1227.7786      	
1227.725       	1227.6865      	1227.6715      	1227.6906      	1227.5846      	1227.6561      	1227.6569      	1227.6184      	1227.605       	1227.6179      	1227.6134      	1227.6075      	1227.6155      	1227.612       	1227.686       	1227.0776      	1227.254       	1227.3022      	1227.5688      	1227.658       	1227.6362      	1227.6385      	1227.6472      	1227.5674      	1227.6521      	1227.6511      	1227.597       	1227.599       	1227.6226      	1227.6095      	1227.6019      	1227.6598      	1227.5951      	1227.6013      	1227.6163      	1227.5436      	1227.5732      	1227.6609      	1227.6377      	1227.5658      	1227.6216      	1227.6074      	1227.4956      	1227.6615      	1227.5762      	1227.5366      	1227.5674      	1227.5646      	1227.5918      	1227.5995      	1227.5923      	1227.6881      	1227.7732      	1227.9501      	1227.8569      	1227.5784      	1227.5547      	1227.5322      	1227.6484      	1227.5354      	1227.5885      	1227.6525      	1227.597       	1227.6241      	1227.5969      	1227.5826      	1227.6099      	1227.6139      	1227.621       	1227.6946      	1227.6123      	1227.6708      	1227.7068      	1227.7195      	1227.6536      	1227.7216      	1227.8118      	1227.4465      	1227.3704      	1227.5004      	1227.6094      	1227.6189      	1227.7228      	1227.6915      	1227.7742      	1227.7725      	1227.7205      	1227.7576      	1227.7495      	1227.7418      	1227.7838      	1227.7701      	1227.7924      	1227.7621      	1227.763       	1227.7247      	1227.7509      	1227.7474      	1227.7537      	1227.7632      	
1227.8553      	1227.8146      	1227.9177      	1227.899       	1227.7762      	1227.9221      	1227.8323      	1227.7512      	1227.8934      	1227.8617      	1227.8335      	1227.8783      	1227.8329      	1227.9712      	1227.3066      	1227.3901      	1227.6157      	1227.6875      	1227.8357      	1227.9839      	1227.886       	1227.8524      	1227.8975      	1227.8478      	1227.8759      	1227.8671      	1227.9067      	1227.8428      	1227.9006      	1227.7904      	1227.8875      	1227.8374      	1227.8276      	1227.8608      	1227.8193      	1227.7502      	1227.8431      	1227.8323      	1227.787       	1227.8352      	1227.8602      	1227.8014      	1227.8198      	1227.8749      	1227.7971      	1227.7792      	1227.8463      	1227.8431      	1227.8224      	1227.8446      	1227.8445      	1227.9327      	1227.9897      	1228.2219      	1228.0415      	1227.8958      	1227.7277      	1227.8033      	1227.7401      	1227.7579      	1227.9142      	1227.7683      	1227.7622      	1227.8562      	1227.8827      	1227.8158      	1227.8616      	1227.8834      	1227.8192      	1227.8528      	1227.9293      	1227.8861      	1227.929       	1227.9055      	1227.9346      	1227.9348      	1228.0175      	1227.8778      	1227.4152      	1227.6602      	1227.7466      	1227.7781      	1227.7921      	1227.9354      	1227.9347      	1227.9047      	1227.921       	1227.9353      	1227.9282      	1227.8759      	1227.8771      	1227.8898      	1227.8197      	1227.8743      	1227.8562      	1227.8928      	1227.8634      	1227.95        	1227.8646      	1227.7153      	
1227.8538      	1227.8745      	1227.7771      	1227.8112      	1227.7974      	1227.7968      	1227.7274      	1227.825       	1227.7478      	1227.8301      	1227.7844      	1227.7922      	1227.8118      	1227.9341      	1227.1644      	1227.5723      	1227.6614      	1227.6101      	1227.6438      	1227.8767      	1227.8247      	1227.8013      	1227.837       	1227.8644      	1227.8633      	1227.8004      	1227.8313      	1227.8169      	1227.818       	1227.8754      	1227.8423      	1227.8185      	1227.7632      	1227.921       	1227.8442      	1227.826       	1227.8501      	1227.8546      	1227.7892      	1227.895       	1227.7786      	1227.868       	1227.8309      	1227.8927      	1227.8466      	1227.8433      	1227.8578      	1227.8384      	1227.8708      	1227.8772      	1227.8821      	1227.9172      	1228.0037      	1228.234       	1228.0317      	1227.9767      	1227.8954      	1227.8771      	1227.8359      	1227.9006      	1227.7788      	1227.9158      	1228.0077      	1227.9597      	1227.8806      	1227.8854      	1227.9384      	1227.8739      	1227.9366      	1227.9573      	1227.97        	1227.9708      	1228.0192      	1228.033       	1228.0145      	1227.965       	1228.0549      	1228.0745      	1227.8254      	1227.6171      	1227.6748      	1227.8159      	1227.8446      	1227.9901      	1227.9733      	1228.0084      	1227.9757      	1227.971       	1227.9946      	1228.007       	1227.9236      	1227.9329      	1227.9728      	1227.9534      	1227.9615      	1228.0089      	1227.9735      	1227.9379      	1227.882       	1227.869       	
1227.636       	1227.536       	1227.5898      	1227.5698      	1227.5636      	1227.5327      	1227.5754      	1227.524       	1227.5614      	1227.4973      	1227.5605      	1227.5155      	1227.519       	1227.5522      	1227.3068      	1227.1222      	1227.3375      	1227.4519      	1227.4281      	1227.5607      	1227.5853      	1227.5796      	1227.5486      	1227.6084      	1227.5627      	1227.5092      	1227.5461      	1227.6027      	1227.5927      	1227.5902      	1227.6329      	1227.6483      	1227.6415      	1227.5402      	1227.4985      	1227.5795      	1227.6588      	1227.5433      	1227.5782      	1227.6296      	1227.5756      	1227.5471      	1227.6407      	1227.5646      	1227.601       	1227.5917      	1227.6407      	1227.5845      	1227.6234      	1227.6113      	1227.614       	1227.6864      	1227.6328      	1227.9006      	1227.9028      	1227.8579      	1227.5466      	1227.4624      	1227.6672      	1227.5708      	1227.627       	1227.658       	1227.63        	1227.6522      	1227.5708      	1227.6796      	1227.5482      	1227.5516      	1227.8438      	1227.5646      	1227.7303      	1227.6984      	1227.7332      	1227.6842      	1227.6727      	1227.6794      	1227.7283      	1227.742       	1227.5458      	1227.186       	1227.4858      	1227.5027      	1227.5123      	1227.7206      	1227.6945      	1227.6614      	1227.6462      	1227.6398      	1227.6417      	1227.6278      	1227.564       	1227.6963      	1227.654       	1227.66        	1227.6423      	1227.6504      	1227.6653      	1227.6184      	1227.6008      	1227.6144      	
1227.9001      	1227.9061      	1227.8442      	1227.8655      	1227.8894      	1227.8423      	1227.8717      	1227.8662      	1227.8536      	1227.797       	1227.8713      	1227.7609      	1227.9124      	1227.8983      	1227.7651      	1227.3325      	1227.7234      	1227.7456      	1227.7258      	1227.8152      	1227.9114      	1227.897       	1227.9216      	1227.9099      	1227.9038      	1227.9142      	1227.9218      	1227.8644      	1227.8978      	1227.9258      	1227.8792      	1227.9114      	1227.9149      	1227.8572      	1227.8724      	1227.8335      	1227.8494      	1227.9182      	1227.8175      	1227.8738      	1227.8876      	1227.8176      	1227.9442      	1227.9119      	1227.926       	1227.9077      	1227.9187      	1227.8973      	1227.8873      	1227.904       	1227.9084      	1227.9015      	1228.0349      	1228.1459      	1228.3123      	1228.1584      	1227.8398      	1227.8783      	1227.8882      	1227.825       	1227.9017      	1227.8909      	1227.8395      	1227.9159      	1227.8943      	1227.8445      	1227.8905      	1227.905       	1227.9452      	1227.9602      	1227.8954      	1227.9149      	1227.8644      	1227.9454      	1227.914       	1227.9578      	1227.8845      	1228.019       	1227.8237      	1227.4371      	1227.6616      	1227.7728      	1227.7527      	1227.8435      	1227.8889      	1227.8804      	1227.8763      	1227.8813      	1227.8654      	1227.8494      	1227.8949      	1227.8549      	1227.8538      	1227.8667      	1227.7935      	1227.8798      	1227.82        	1227.8081      	1227.7883      	1227.795       	
1227.8765      	1227.911       	1227.815       	1227.8256      	1227.8407      	1227.8535      	1227.8137      	1227.8046      	1227.8148      	1227.7701      	1227.7405      	1227.8098      	1227.7279      	1227.8542      	1227.9395      	1227.3455      	1227.5996      	1227.7267      	1227.5815      	1227.7706      	1227.9246      	1227.8381      	1227.9462      	1227.8544      	1227.877       	1227.912       	1227.7769      	1227.9299      	1227.8827      	1227.8628      	1227.9137      	1227.906       	1227.8573      	1227.939       	1227.8584      	1227.933       	1227.8595      	1227.9106      	1227.8772      	1227.9124      	1227.921       	1227.9049      	1227.9249      	1227.9537      	1227.9135      	1227.9199      	1227.9803      	1227.9015      	1228.0583      	1227.9435      	1227.9495      	1228.0513      	1228.095       	1228.1898      	1228.3164      	1228.2949      	1227.9933      	1228.0181      	1227.9572      	1227.9568      	1227.991       	1228.0138      	1228.0632      	1228.0297      	1228.0337      	1228.0135      	1228.0413      	1228.1177      	1228.094       	1227.9841      	1228.0681      	1228.0621      	1228.0754      	1228.0806      	1228.0679      	1228.0891      	1228.0646      	1228.0918      	1228.05        	1227.5675      	1227.842       	1227.9131      	1227.7808      	1227.9315      	1228.014       	1228.0905      	1228.0009      	1227.9688      	1227.9784      	1227.9064      	1228.1312      	1228.0052      	1228.0033      	1227.9626      	1228.0582      	1228.0137      	1227.9932      	1228.0042      	1227.9475      	1227.9409      	
1227.9114      	1227.9081      	1227.9016      	1227.9036      	1227.8434      	1227.9739      	1227.8768      	1227.9534      	1227.92        	1227.9         	1227.9097      	1227.8892      	1227.9211      	1227.9482      	1227.943       	1227.6019      	1227.5718      	1227.7249      	1227.808       	1227.8665      	1228.0112      	1227.9333      	1228.1035      	1228.0376      	1227.9717      	1228.0216      	1228.0188      	1227.9933      	1227.9534      	1228.0242      	1227.9812      	1228.0829      	1228.019       	1228.0209      	1227.9639      	1228.0233      	1227.9879      	1227.9817      	1227.9916      	1227.9186      	1227.9341      	1228.0331      	1227.9637      	1228.0204      	1227.9348      	1228.0437      	1228.0917      	1228.0581      	1228.0403      	1228.011       	1228.0305      	1228.0037      	1228.1669      	1228.2542      	1228.1799      	1228.2747      	1228.0803      	1228.0518      	1228.0239      	1227.9923      	1227.935       	1228.0585      	1228.0278      	1228.0819      	1228.0028      	1228.0454      	1228.039       	1228.0017      	1228.0515      	1228.0326      	1228.0315      	1228.0728      	1228.0325      	1228.0688      	1228.0234      	1227.9657      	1228.0763      	1228.0402      	1228.1415      	1227.4364      	1227.7415      	1227.8262      	1227.8098      	1227.9469      	1227.92        	1228.051       	1227.9973      	1228.0217      	1228.0148      	1227.9924      	1227.9722      	1227.9171      	1227.9584      	1227.9833      	1227.976       	1227.9471      	1227.9589      	1227.9348      	1227.8727      	1227.8788      	
1227.9236      	1227.9777      	1227.9082      	1227.9797      	1227.9285      	1228.0017      	1227.9677      	1227.9075      	1227.9786      	1228.0027      	1228.0334      	1227.8824      	1228.0886      	1228.0045      	1228.0664      	1227.946       	1227.5702      	1227.7867      	1227.8468      	1227.8948      	1228.0602      	1228.0687      	1228.091       	1228.0532      	1228.1022      	1228.0751      	1228.0656      	1228.1301      	1228.0242      	1228.1893      	1228.0953      	1228.081       	1228.1091      	1228.1073      	1228.0714      	1228.0692      	1228.0712      	1228.0917      	1228.1011      	1228.0652      	1228.0917      	1228.1226      	1228.1086      	1228.1177      	1228.0907      	1228.0304      	1228.205       	1228.0232      	1228.1532      	1228.0911      	1228.2494      	1228.0835      	1228.1663      	1228.3186      	1228.2996      	1228.5839      	1228.2467      	1228.1355      	1228.1272      	1228.1096      	1228.1792      	1228.1741      	1228.0481      	1228.1614      	1228.1735      	1228.0205      	1228.1156      	1228.1395      	1228.1621      	1228.15        	1228.096       	1228.1019      	1228.0684      	1228.1522      	1228.0137      	1228.1647      	1228.0841      	1228.0924      	1228.2649      	1227.6262      	1227.8693      	1227.7175      	1227.8937      	1227.78        	1228.048       	1228.0952      	1228.0011      	1227.9786      	1228.0112      	1227.971       	1228.0098      	1227.9718      	1228.0017      	1228.0042      	1227.9574      	1227.9901      	1227.9597      	1227.9364      	1227.9279      	1227.9377      	
1228.03        	1228.02        	1227.9904      	1228.0421      	1227.9211      	1227.9758      	1227.9724      	1227.9648      	1227.9321      	1227.9645      	1227.9731      	1227.9324      	1228.0646      	1227.9846      	1227.991       	1228.2183      	1227.4343      	1227.7235      	1227.8594      	1227.9115      	1228.0293      	1228.0983      	1228.0588      	1228.072       	1228.0388      	1228.0703      	1228.0319      	1228.0804      	1228.0574      	1228.0605      	1228.0446      	1228.0806      	1228.0546      	1228.0515      	1228.0594      	1228.0613      	1228.0115      	1228.0542      	1228.0292      	1228.0726      	1228.0002      	1228.0226      	1228.0725      	1227.9835      	1228.0416      	1228.0952      	1228.0156      	1228.0176      	1228.043       	1228.0808      	1228.0743      	1227.951       	1228.0841      	1228.1721      	1228.1903      	1228.4062      	1228.3401      	1227.9661      	1227.8783      	1227.94        	1227.9266      	1228.0134      	1227.8921      	1228.083       	1227.928       	1228.0063      	1228.0679      	1228.0177      	1228.0885      	1228.004       	1228.0804      	1228.0798      	1228.0352      	1228.0238      	1227.9995      	1228.0518      	1227.963       	1227.9803      	1228.1438      	1227.5718      	1227.6359      	1227.6218      	1227.8007      	1227.8309      	1228.0458      	1227.8413      	1227.8898      	1227.9485      	1227.8422      	1227.9417      	1227.7843      	1227.9584      	1227.8712      	1227.9032      	1227.8712      	1227.8754      	1227.8381      	1227.8008      	1227.8058      	1227.8202      	
1228.2239      	1228.2123      	1228.3474      	1228.2911      	1228.2776      	1228.2505      	1228.2837      	1228.3047      	1228.2667      	1228.3378      	1228.3021      	1228.2948      	1228.3737      	1228.2761      	1228.3146      	1228.5339      	1227.797       	1228.2054      	1228.2239      	1228.2552      	1228.2747      	1228.3823      	1228.4545      	1228.3989      	1228.3875      	1228.412       	1228.3728      	1228.4036      	1228.3674      	1228.4387      	1228.3898      	1228.3909      	1228.3923      	1228.4113      	1228.3458      	1228.3762      	1228.381       	1228.407       	1228.3508      	1228.3732      	1228.4159      	1228.4081      	1228.429       	1228.4589      	1228.471       	1228.4104      	1228.4325      	1228.4731      	1228.4061      	1228.4653      	1228.426       	1228.3717      	1228.4784      	1228.5634      	1228.7495      	1228.6932      	1228.6802      	1228.4065      	1228.3527      	1228.3944      	1228.4258      	1228.3966      	1228.4121      	1228.4154      	1228.3339      	1228.3931      	1228.3452      	1228.3516      	1228.3895      	1228.3605      	1228.3599      	1228.3898      	1228.3201      	1228.4061      	1228.3607      	1228.2971      	1228.3306      	1228.2944      	1228.3615      	1228.1644      	1227.8544      	1228.0298      	1228.153       	1228.0554      	1228.1775      	1228.2192      	1228.3015      	1228.2108      	1228.1335      	1228.3322      	1228.2155      	1228.1411      	1228.2994      	1228.1891      	1228.177       	1228.1986      	1228.1874      	1228.1978      	1228.1981      	1228.1921      	
1227.9121      	1227.9509      	1227.9265      	1227.9115      	1227.8978      	1227.8846      	1227.9501      	1227.8671      	1227.9915      	1227.9327      	1228.032       	1227.9323      	1228.0073      	1228.0015      	1228.0774      	1228.0721      	1227.6665      	1227.7804      	1227.7847      	1227.8771      	1227.9115      	1228.0952      	1228.0132      	1228.1669      	1228.0464      	1228.1141      	1228.0587      	1228.0833      	1228.0712      	1228.0764      	1228.0348      	1228.0671      	1228.0652      	1228.0253      	1228.1605      	1228.1086      	1228.1002      	1228.1384      	1228.0814      	1228.243       	1228.185       	1228.1564      	1228.2493      	1228.2294      	1228.2208      	1228.2019      	1228.12        	1228.2273      	1228.1752      	1228.1875      	1228.2245      	1228.1929      	1228.2085      	1228.298       	1228.3992      	1228.4844      	1228.4429      	1228.3038      	1228.1185      	1228.1962      	1228.1508      	1228.2041      	1228.2147      	1228.156       	1228.2219      	1228.204       	1228.2303      	1228.2118      	1228.19        	1228.1909      	1228.2059      	1228.172       	1228.2245      	1228.1544      	1228.1584      	1228.239       	1228.127       	1228.2346      	1228.2147      	1228.2408      	1227.5659      	1227.887       	1228.0507      	1227.8036      	1228.0455      	1228.142       	1228.1295      	1228.0968      	1228.1835      	1228.0753      	1228.2247      	1228.1835      	1228.1293      	1228.1697      	1228.2019      	1228.1951      	1228.135       	1228.1714      	1228.158       	1228.1383      	
1227.6202      	1227.6599      	1227.6296      	1227.6499      	1227.674       	1227.7185      	1227.5951      	1227.6884      	1227.7109      	1227.7004      	1227.6777      	1227.6716      	1227.6671      	1227.7823      	1227.8097      	1227.8021      	1227.5304      	1227.4637      	1227.5309      	1227.5765      	1227.5319      	1227.7886      	1227.7255      	1227.8097      	1227.746       	1227.7246      	1227.7513      	1227.7742      	1227.6952      	1227.7767      	1227.7284      	1227.7512      	1227.7189      	1227.7982      	1227.7566      	1227.7677      	1227.7388      	1227.7644      	1227.7917      	1227.7676      	1227.798       	1227.7571      	1227.7952      	1227.7258      	1227.788       	1227.7612      	1227.816       	1227.7814      	1227.8245      	1227.8319      	1227.8009      	1227.863       	1227.7803      	1227.8689      	1227.9285      	1228.0441      	1228.2018      	1228.1725      	1227.8204      	1227.8181      	1227.8351      	1227.8169      	1227.86        	1227.8385      	1227.8381      	1227.8185      	1227.8263      	1227.852       	1227.7925      	1227.8889      	1227.8342      	1227.8341      	1227.7335      	1227.8291      	1227.8044      	1227.7812      	1227.7749      	1227.7941      	1227.8035      	1227.8531      	1227.2808      	1227.3915      	1227.4696      	1227.5482      	1227.6091      	1227.7186      	1227.6635      	1227.6841      	1227.717       	1227.6526      	1227.7183      	1227.7554      	1227.6945      	1227.714       	1227.6743      	1227.6667      	1227.688       	1227.7622      	1227.7368      	1227.7         	
1227.4655      	1227.4321      	1227.451       	1227.4827      	1227.4694      	1227.4034      	1227.573       	1227.4785      	1227.5256      	1227.4978      	1227.5144      	1227.4905      	1227.5187      	1227.5383      	1227.5549      	1227.6532      	1227.5526      	1227.1604      	1227.372       	1227.4789      	1227.3534      	1227.5608      	1227.5942      	1227.6284      	1227.5958      	1227.6005      	1227.6251      	1227.5918      	1227.5822      	1227.6017      	1227.6212      	1227.6138      	1227.6249      	1227.6024      	1227.5627      	1227.6044      	1227.603       	1227.5374      	1227.677       	1227.6688      	1227.572       	1227.6958      	1227.5867      	1227.6554      	1227.6333      	1227.6409      	1227.7247      	1227.617       	1227.7732      	1227.672       	1227.8044      	1227.7422      	1227.6595      	1227.7053      	1227.823       	1227.9386      	1227.9458      	1228.0656      	1227.7079      	1227.7346      	1227.6749      	1227.6749      	1227.6622      	1227.679       	1227.6853      	1227.7087      	1227.6698      	1227.6525      	1227.6205      	1227.6265      	1227.6407      	1227.5834      	1227.5468      	1227.5808      	1227.6522      	1227.6215      	1227.5931      	1227.5835      	1227.5872      	1227.6936      	1227.0051      	1227.2053      	1227.3566      	1227.3911      	1227.34        	1227.4629      	1227.538       	1227.5298      	1227.5265      	1227.5363      	1227.5167      	1227.4608      	1227.5491      	1227.5017      	1227.5464      	1227.5742      	1227.6063      	1227.6395      	1227.6111      	1227.6238      	
1227.3625      	1227.3721      	1227.395       	1227.33        	1227.3549      	1227.3923      	1227.2776      	1227.4285      	1227.375       	1227.4253      	1227.2947      	1227.4716      	1227.4557      	1227.4341      	1227.4265      	1227.4647      	1227.6603      	1226.8969      	1227.2767      	1227.2013      	1227.2706      	1227.3801      	1227.576       	1227.546       	1227.4023      	1227.5447      	1227.4938      	1227.5874      	1227.4742      	1227.439       	1227.4669      	1227.4734      	1227.413       	1227.5286      	1227.4604      	1227.4777      	1227.4373      	1227.487       	1227.4656      	1227.5052      	1227.4868      	1227.5126      	1227.4973      	1227.5438      	1227.405       	1227.5631      	1227.5012      	1227.5663      	1227.4596      	1227.575       	1227.5319      	1227.5442      	1227.4906      	1227.471       	1227.5845      	1227.8062      	1227.6836      	1227.7942      	1227.5847      	1227.5116      	1227.4741      	1227.4858      	1227.4492      	1227.4286      	1227.4537      	1227.4625      	1227.5548      	1227.3683      	1227.4054      	1227.5278      	1227.3959      	1227.4159      	1227.4265      	1227.3425      	1227.3064      	1227.347       	1227.4146      	1227.3763      	1227.3214      	1227.424       	1227.1927      	1226.8982      	1227.0413      	1227.0798      	1227.139       	1227.2064      	1227.2766      	1227.3276      	1227.3616      	1227.4275      	1227.3003      	1227.3796      	1227.2709      	1227.3804      	1227.3247      	1227.464       	1227.406       	1227.4523      	1227.5273      	1227.6654      	
1227.3289      	1227.3654      	1227.3732      	1227.3391      	1227.3607      	1227.3761      	1227.3801      	1227.3811      	1227.3883      	1227.4178      	1227.4056      	1227.4113      	1227.4386      	1227.4517      	1227.4636      	1227.4182      	1227.5769      	1227.059       	1227.0665      	1227.2527      	1227.2585      	1227.3856      	1227.504       	1227.4481      	1227.4954      	1227.4807      	1227.481       	1227.4738      	1227.449       	1227.5011      	1227.4995      	1227.4845      	1227.4445      	1227.441       	1227.4095      	1227.4506      	1227.4685      	1227.5012      	1227.4846      	1227.4818      	1227.4692      	1227.4987      	1227.5214      	1227.4747      	1227.5178      	1227.467       	1227.5022      	1227.511       	1227.5708      	1227.4409      	1227.5728      	1227.547       	1227.5089      	1227.5085      	1227.6135      	1227.7097      	1227.7555      	1227.7911      	1227.6443      	1227.4617      	1227.356       	1227.4723      	1227.4711      	1227.4182      	1227.3772      	1227.4026      	1227.3896      	1227.3602      	1227.4263      	1227.3663      	1227.401       	1227.38        	1227.3156      	1227.3809      	1227.3408      	1227.3258      	1227.2802      	1227.3462      	1227.2439      	1227.3969      	1227.2888      	1226.6476      	1227.0042      	1227.0828      	1227.0865      	1227.0992      	1227.2434      	1227.2443      	1227.3052      	1227.3091      	1227.3173      	1227.1366      	1227.3776      	1227.0919      	1227.2361      	1227.4069      	1227.3137      	1227.397       	1227.4836      	1227.4187      	
1227.3557      	1227.4005      	1227.3821      	1227.3721      	1227.3901      	1227.3447      	1227.4127      	1227.4061      	1227.3853      	1227.44        	1227.4539      	1227.4412      	1227.4126      	1227.4415      	1227.4944      	1227.4265      	1227.5634      	1227.0527      	1227.1147      	1227.2041      	1227.4272      	1227.2996      	1227.4084      	1227.5284      	1227.4773      	1227.5011      	1227.4612      	1227.4512      	1227.4648      	1227.4539      	1227.5217      	1227.4952      	1227.5171      	1227.4728      	1227.5195      	1227.4954      	1227.5259      	1227.6122      	1227.4614      	1227.4962      	1227.5186      	1227.4373      	1227.5854      	1227.521       	1227.5558      	1227.5181      	1227.5684      	1227.5237      	1227.5348      	1227.5508      	1227.5591      	1227.5804      	1227.4749      	1227.4812      	1227.5898      	1227.6854      	1227.7478      	1227.828       	1227.7732      	1227.4182      	1227.4423      	1227.4387      	1227.5327      	1227.4224      	1227.478       	1227.4376      	1227.4049      	1227.377       	1227.4762      	1227.4215      	1227.3688      	1227.4082      	1227.3569      	1227.302       	1227.2635      	1227.2052      	1227.1777      	1227.2537      	1227.3046      	1227.238       	1227.3862      	1226.6906      	1226.9084      	1227.1359      	1227.2372      	1227.1423      	1227.0643      	1227.24        	1227.2874      	1227.1926      	1227.2427      	1227.1815      	1227.2596      	1227.3473      	1227.1942      	1227.323       	1227.3938      	1227.5007      	1227.4979      	1227.4387      	
1227.258       	1227.2515      	1227.2684      	1227.2805      	1227.3257      	1227.2682      	1227.3958      	1227.3046      	1227.3833      	1227.3901      	1227.3807      	1227.4106      	1227.3862      	1227.3871      	1227.3684      	1227.3992      	1227.4586      	1227.2981      	1226.9982      	1227.242       	1227.2236      	1227.3104      	1227.3345      	1227.5474      	1227.4299      	1227.4333      	1227.413       	1227.4563      	1227.4116      	1227.3907      	1227.4982      	1227.4324      	1227.4572      	1227.4333      	1227.4384      	1227.4442      	1227.4374      	1227.4728      	1227.4159      	1227.4575      	1227.4414      	1227.5005      	1227.451       	1227.4755      	1227.4811      	1227.4529      	1227.4674      	1227.4689      	1227.465       	1227.4608      	1227.4678      	1227.478       	1227.4796      	1227.4574      	1227.4778      	1227.593       	1227.6775      	1227.7668      	1227.7562      	1227.3405      	1227.4156      	1227.3726      	1227.4132      	1227.4144      	1227.3474      	1227.4093      	1227.3883      	1227.3562      	1227.3503      	1227.3717      	1227.329       	1227.3281      	1227.3289      	1227.321       	1227.255       	1227.304       	1227.3328      	1227.2804      	1227.2754      	1227.2639      	1227.3296      	1227.1453      	1226.9641      	1227.1626      	1227.0806      	1227.1163      	1227.2255      	1227.2366      	1227.3508      	1227.1262      	1227.2888      	1227.393       	1227.1648      	1227.3428      	1227.3329      	1227.5962      	1227.3156      	1227.1792      	1227.1779      	1227.2527      	
1227.0419      	1227.0988      	1227.0713      	1227.0598      	1227.0352      	1227.1202      	1227.0173      	1227.1151      	1227.1589      	1227.1002      	1227.1366      	1227.0846      	1227.1775      	1227.136       	1227.087       	1227.1986      	1227.1504      	1227.3151      	1226.5883      	1226.9126      	1226.9567      	1227.0026      	1226.9296      	1227.1511      	1227.1401      	1227.1398      	1227.0992      	1227.1082      	1227.116       	1227.148       	1227.157       	1227.1936      	1227.1804      	1227.139       	1227.1433      	1227.1378      	1227.1311      	1227.074       	1227.2177      	1227.1263      	1227.2361      	1227.1388      	1227.184       	1227.2291      	1227.1428      	1227.2208      	1227.2058      	1227.1815      	1227.1844      	1227.1979      	1227.1567      	1227.1606      	1227.1545      	1227.2042      	1227.1868      	1227.2899      	1227.4225      	1227.4568      	1227.4807      	1227.1552      	1227.1074      	1227.0754      	1227.0946      	1227.1353      	1227.0845      	1227.1422      	1227.1237      	1227.068       	1227.1005      	1227.0398      	1227.1377      	1227.0358      	1227.0422      	1227.0411      	1227.02        	1227.0067      	1227.0126      	1226.9982      	1227.0044      	1226.9661      	1226.9989      	1227.0306      	1226.9844      	1226.718       	1226.7311      	1226.9484      	1227.0753      	1226.8959      	1227.0577      	1227.1343      	1227.2017      	1226.9878      	1227.0588      	1226.9731      	1226.9655      	1227.0586      	1226.9777      	1227.2157      	1226.942       	1226.8856      	
1226.8684      	1226.922       	1226.9143      	1226.9012      	1227.0181      	1227.0173      	1226.977       	1226.8134      	1227.0175      	1227.0298      	1226.9504      	1226.9226      	1227.0603      	1227.0154      	1226.8568      	1227.0325      	1227.0483      	1226.9778      	1226.8967      	1226.6736      	1226.7627      	1226.7362      	1226.8486      	1227.0262      	1227.0366      	1226.9493      	1227.0608      	1227.0168      	1226.995       	1227.007       	1227.0265      	1226.987       	1227.0704      	1227.0433      	1227.0763      	1227.0863      	1227.0503      	1227.1193      	1227.0305      	1227.0671      	1227.0642      	1226.9924      	1227.061       	1227.1389      	1227.0145      	1227.0403      	1227.08        	1227.0569      	1227.1473      	1227.019       	1227.0529      	1227.0609      	1227.054       	1227.1504      	1226.9966      	1227.1034      	1227.2223      	1227.2703      	1227.3687      	1227.1339      	1226.9998      	1226.9778      	1226.9835      	1226.9509      	1226.8162      	1226.9034      	1226.9539      	1226.924       	1226.9088      	1226.8983      	1226.8953      	1226.8491      	1226.933       	1226.8939      	1226.8573      	1226.8384      	1226.8794      	1226.8281      	1226.8146      	1226.8345      	1226.8104      	1226.8677      	1226.8052      	1226.8038      	1226.7635      	1226.8435      	1226.7164      	1226.8246      	1226.8602      	1226.7898      	1226.8385      	1226.8163      	1226.815       	1226.8185      	1226.859       	1226.8381      	1226.844       	1226.9325      	1226.9048      	1226.7659      	
1227.0376      	1227.0458      	1227.0356      	1227.0392      	1227.1088      	1227.0442      	1227.0876      	1227.1097      	1227.1287      	1227.1362      	1227.1614      	1227.117       	1227.1312      	1227.1211      	1227.1674      	1227.0784      	1227.1415      	1227.1522      	1227.056       	1226.5458      	1226.8816      	1226.9374      	1226.9016      	1227.0398      	1227.1375      	1227.0542      	1227.0383      	1227.0748      	1227.1367      	1227.0802      	1227.0858      	1227.132       	1227.1028      	1227.1056      	1227.0632      	1227.1455      	1227.1005      	1227.1235      	1227.074       	1227.1034      	1227.0669      	1226.9899      	1227.1194      	1227.0282      	1227.1835      	1227.0602      	1227.0587      	1227.1017      	1227.0808      	1227.0438      	1227.0803      	1227.0569      	1227.0553      	1227.029       	1227.0892      	1227.0374      	1227.1456      	1227.2018      	1227.3375      	1227.2664      	1226.9492      	1227.0441      	1226.9266      	1227.0505      	1226.9828      	1226.9222      	1227.0532      	1227.0034      	1226.9509      	1226.9597      	1226.9724      	1226.8651      	1226.9889      	1226.9315      	1226.8269      	1226.8488      	1226.9504      	1226.8627      	1226.887       	1226.9302      	1226.8619      	1226.8582      	1226.8851      	1226.7732      	1226.8474      	1226.8823      	1226.7242      	1226.9401      	1226.8406      	1226.9056      	1226.803       	1226.8667      	1226.8475      	1226.9502      	1226.911       	1226.892       	1226.9065      	1226.9539      	1226.9607      	1227.0037      	
1226.8683      	1226.9368      	1226.9568      	1226.991       	1226.9677      	1227.0038      	1227.0165      	1227.0251      	1226.9551      	1227.0032      	1226.9514      	1227.0382      	1226.9838      	1227.0105      	1226.9982      	1227.0591      	1227.0542      	1227.0425      	1227.1311      	1226.4437      	1226.6946      	1226.8438      	1226.852       	1226.8468      	1227.0541      	1227.0581      	1226.9517      	1227.0046      	1226.967       	1227.0903      	1226.9436      	1226.9368      	1227.0521      	1226.9967      	1226.9767      	1227.0077      	1227.0669      	1226.993       	1227.0325      	1227.0731      	1227.0544      	1227.0308      	1226.9745      	1227.0278      	1227.0763      	1227.1133      	1227.0435      	1227.013       	1227.0427      	1227.0419      	1227.0009      	1227.0391      	1227.0776      	1226.939       	1226.9478      	1226.9762      	1227.0491      	1227.0962      	1227.3417      	1227.2847      	1226.927       	1226.9061      	1226.9364      	1226.9113      	1226.9178      	1226.8749      	1226.8961      	1226.894       	1226.8563      	1226.8801      	1226.8938      	1226.8657      	1226.8491      	1226.8468      	1226.8407      	1226.8221      	1226.8181      	1226.8286      	1226.8286      	1226.7958      	1226.7894      	1226.8         	1226.8329      	1226.7883      	1226.824       	1226.8121      	1226.7634      	1226.8083      	1226.8204      	1226.8083      	1226.8347      	1226.8771      	1226.8439      	1226.8778      	1226.9122      	1226.85        	1227.0149      	1226.793       	1226.7286      	1226.8706      	
1226.9863      	1226.9617      	1226.9749      	1227.0421      	1227.0428      	1227.0457      	1227.0265      	1227.093       	1227.141       	1227.0741      	1227.0757      	1227.0559      	1227.0519      	1227.092       	1227.0498      	1227.012       	1227.0339      	1227.1527      	1227.222       	1226.3639      	1226.8894      	1226.8647      	1226.8973      	1226.811       	1227.0349      	1227.0435      	1227.0488      	1226.9401      	1227.0938      	1227.0337      	1227.0406      	1226.9979      	1227.0388      	1227.0262      	1226.9825      	1227.0741      	1227.0168      	1227.0261      	1227.0382      	1227.0786      	1227.0358      	1227.0353      	1227.0399      	1227.0667      	1227.0382      	1227.0676      	1227.0667      	1226.9772      	1227.0023      	1226.9988      	1226.9894      	1227.0104      	1227.0056      	1227.0463      	1226.9352      	1227.0132      	1227.0608      	1227.1705      	1227.2776      	1227.3107      	1227.0383      	1226.951       	1226.9257      	1226.8928      	1226.904       	1226.9119      	1226.9071      	1226.8949      	1226.8372      	1226.8273      	1226.7821      	1226.8365      	1226.7628      	1226.8192      	1226.7915      	1226.6862      	1226.8541      	1226.8054      	1226.7987      	1226.7498      	1226.8068      	1226.784       	1226.7272      	1226.6569      	1226.8176      	1226.8212      	1226.7019      	1226.7742      	1226.78        	1226.8372      	1226.8767      	1226.6866      	1226.8098      	1226.8461      	1226.8079      	1226.909       	1226.9872      	1226.7239      	1226.7174      	1227.0051      	
1227.1262      	1227.1105      	1227.0957      	1227.2255      	1227.2156      	1227.2153      	1227.2703      	1227.3009      	1227.2844      	1227.2632      	1227.1924      	1227.2268      	1227.161       	1227.203       	1227.2156      	1227.1926      	1227.1356      	1227.2106      	1227.2844      	1226.7671      	1226.8881      	1226.8849      	1227.0374      	1227.011       	1227.1145      	1227.1094      	1227.1549      	1227.1697      	1227.1392      	1227.1322      	1227.1332      	1227.1829      	1227.0901      	1227.1085      	1227.1017      	1227.153       	1227.1086      	1227.1768      	1227.1221      	1227.239       	1227.0657      	1227.1792      	1227.1118      	1227.123       	1227.1378      	1227.1045      	1227.1329      	1227.0901      	1227.062       	1227.0814      	1227.108       	1227.0955      	1227.0896      	1226.9852      	1227.1095      	1227.1378      	1227.0985      	1227.1525      	1227.2173      	1227.3087      	1227.1252      	1226.9542      	1226.9609      	1226.9594      	1226.845       	1226.9968      	1226.9525      	1226.9545      	1226.9697      	1226.9009      	1226.8639      	1226.9852      	1226.8835      	1226.7971      	1226.9706      	1226.8577      	1226.8658      	1226.872       	1226.7803      	1226.8809      	1226.8508      	1226.801       	1226.9374      	1226.7915      	1226.9012      	1226.775       	1226.8274      	1226.875       	1226.8556      	1226.8972      	1226.8302      	1226.9596      	1226.8827      	1226.9153      	1226.9205      	1226.9501      	1226.939       	1226.9672      	1226.9713      	1227.011       	
1227.3152      	1227.2794      	1227.3993      	1227.3959      	1227.335       	1227.365       	1227.4612      	1227.4806      	1227.4053      	1227.372       	1227.411       	1227.3647      	1227.3956      	1227.3702      	1227.3889      	1227.3542      	1227.3839      	1227.413       	1227.3829      	1227.3839      	1226.88        	1227.1749      	1227.1653      	1227.174       	1227.3224      	1227.3534      	1227.3276      	1227.3213      	1227.3358      	1227.3749      	1227.37        	1227.3801      	1227.3597      	1227.3914      	1227.3519      	1227.3965      	1227.3342      	1227.3888      	1227.4181      	1227.3632      	1227.3657      	1227.3925      	1227.3593      	1227.3492      	1227.371       	1227.3599      	1227.4546      	1227.3508      	1227.2775      	1227.3221      	1227.3982      	1227.4053      	1227.3464      	1227.3613      	1227.2158      	1227.4142      	1227.3927      	1227.4177      	1227.2332      	1227.572       	1227.4727      	1227.3436      	1227.1953      	1227.308       	1227.2042      	1227.2421      	1227.1841      	1227.157       	1227.2167      	1227.129       	1227.2106      	1227.1584      	1227.1682      	1227.1588      	1227.1356      	1227.2004      	1227.1742      	1227.1707      	1227.1506      	1227.1339      	1227.1783      	1227.157       	1227.1652      	1227.1317      	1227.1306      	1227.1633      	1227.1628      	1227.1593      	1227.156       	1227.2198      	1227.1122      	1227.2593      	1227.2429      	1227.1139      	1227.1543      	1227.2073      	1227.2976      	1227.202       	1227.2378      	1227.1083      	
1227.4686      	1227.5175      	1227.5039      	1227.5122      	1227.5054      	1227.4803      	1227.5508      	1227.5037      	1227.4288      	1227.5244      	1227.4894      	1227.4462      	1227.4575      	1227.4895      	1227.4712      	1227.4608      	1227.4441      	1227.4314      	1227.4552      	1227.5643      	1226.753       	1227.122       	1227.2407      	1227.1821      	1227.2882      	1227.4329      	1227.4475      	1227.3552      	1227.3497      	1227.421       	1227.4071      	1227.3997      	1227.4229      	1227.3837      	1227.3542      	1227.424       	1227.4415      	1227.4564      	1227.4354      	1227.4402      	1227.469       	1227.462       	1227.4813      	1227.4373      	1227.4431      	1227.4448      	1227.4489      	1227.3708      	1227.5042      	1227.2644      	1227.3784      	1227.3723      	1227.5083      	1227.2822      	1227.3081      	1227.5663      	1227.4669      	1227.3458      	1227.4122      	1227.5183      	1227.5809      	1227.3751      	1227.3706      	1227.3865      	1227.3079      	1227.3132      	1227.2614      	1227.3241      	1227.2721      	1227.2126      	1227.2704      	1227.2922      	1227.2544      	1227.3168      	1227.2577      	1227.3114      	1227.2059      	1227.2509      	1227.258       	1227.2853      	1227.2227      	1227.2488      	1227.2528      	1227.1884      	1227.2812      	1227.2328      	1227.2253      	1227.2185      	1227.2725      	1227.2883      	1227.2837      	1227.2834      	1227.3113      	1227.3108      	1227.3616      	1227.3567      	1227.5477      	1227.3435      	1227.1643      	1227.2971      	
1227.6233      	1227.6257      	1227.6254      	1227.5438      	1227.6165      	1227.6056      	1227.5605      	1227.6786      	1227.6024      	1227.6329      	1227.5966      	1227.6183      	1227.6766      	1227.6157      	1227.6323      	1227.5923      	1227.5923      	1227.6118      	1227.595       	1227.659       	1227.1344      	1227.3074      	1227.3717      	1227.3711      	1227.4077      	1227.5923      	1227.6064      	1227.5187      	1227.5508      	1227.5591      	1227.597       	1227.5471      	1227.6191      	1227.5615      	1227.5999      	1227.6339      	1227.5969      	1227.6193      	1227.699       	1227.5854      	1227.6655      	1227.6489      	1227.6249      	1227.6792      	1227.5785      	1227.5317      	1227.6277      	1227.5923      	1227.4501      	1227.5535      	1227.6329      	1227.526       	1227.433       	1227.5837      	1227.5618      	1227.5201      	1227.6234      	1227.6171      	1227.6135      	1227.5018      	1227.4496      	1227.4473      	1227.4583      	1227.4314      	1227.4224      	1227.4188      	1227.3698      	1227.4913      	1227.411       	1227.4464      	1227.4233      	1227.3898      	1227.407       	1227.4025      	1227.352       	1227.41        	1227.3645      	1227.3617      	1227.3641      	1227.4028      	1227.4532      	1227.3794      	1227.3885      	1227.4122      	1227.38        	1227.3992      	1227.4071      	1227.3984      	1227.4475      	1227.4218      	1227.4855      	1227.3972      	1227.4479      	1227.5103      	1227.4928      	1227.5298      	1227.5562      	1227.4811      	1227.4976      	1227.5874      	
1227.391       	1227.3202      	1227.436       	1227.4004      	1227.437       	1227.4438      	1227.4326      	1227.4409      	1227.3969      	1227.4299      	1227.3923      	1227.4031      	1227.431       	1227.3286      	1227.4191      	1227.4347      	1227.3844      	1227.3555      	1227.359       	1227.4734      	1227.1125      	1226.9834      	1227.0242      	1227.176       	1227.1624      	1227.3008      	1227.3589      	1227.3497      	1227.3268      	1227.3942      	1227.3523      	1227.4156      	1227.314       	1227.4316      	1227.4587      	1227.4803      	1227.2804      	1227.452       	1227.3923      	1227.5422      	1227.3021      	1227.4707      	1227.5656      	1227.4526      	1227.3851      	1227.4211      	1227.3622      	1227.4076      	1227.2927      	1227.546       	1227.354       	1227.3047      	1227.3585      	1227.5184      	1227.3306      	1227.302       	1227.3225      	1227.3462      	1227.3163      	1227.2756      	1227.3163      	1227.2876      	1227.217       	1227.3497      	1227.2166      	1227.3452      	1227.204       	1227.346       	1227.2826      	1227.247       	1227.2677      	1227.2423      	1227.2488      	1227.2511      	1227.2661      	1227.2505      	1227.2704      	1227.2773      	1227.2733      	1227.2739      	1227.2383      	1227.237       	1227.3079      	1227.1749      	1227.3652      	1227.2635      	1227.3206      	1227.2927      	1227.2878      	1227.3843      	1227.352       	1227.3602      	1227.3861      	1227.3817      	1227.3732      	1227.4052      	1227.5729      	1227.3098      	1227.3091      	1227.5623      	
1227.4895      	1227.5337      	1227.5559      	1227.5349      	1227.5398      	1227.5076      	1227.5327      	1227.5519      	1227.5006      	1227.4987      	1227.4895      	1227.4486      	1227.5056      	1227.4846      	1227.4565      	1227.4967      	1227.4841      	1227.429       	1227.4192      	1227.4597      	1227.4324      	1226.9128      	1227.1835      	1227.2122      	1227.1919      	1227.366       	1227.4247      	1227.4124      	1227.3917      	1227.4442      	1227.442       	1227.4442      	1227.4904      	1227.537       	1227.5507      	1227.4387      	1227.502       	1227.3787      	1227.5135      	1227.5671      	1227.5106      	1227.6122      	1227.5319      	1227.3523      	1227.3372      	1227.4835      	1227.4238      	1227.6097      	1227.4081      	1227.3823      	1227.4144      	1227.3652      	1227.3767      	1227.3628      	1227.3279      	1227.3425      	1227.3839      	1227.3495      	1227.361       	1227.3723      	1227.2904      	1227.2502      	1227.3611      	1227.3324      	1227.2804      	1227.3165      	1227.3098      	1227.3455      	1227.2448      	1227.3396      	1227.2694      	1227.2385      	1227.322       	1227.2341      	1227.288       	1227.2345      	1227.3108      	1227.2432      	1227.3026      	1227.3069      	1227.2954      	1227.2957      	1227.314       	1227.3103      	1227.3638      	1227.342       	1227.4032      	1227.3856      	1227.3184      	1227.4335      	1227.3925      	1227.3887      	1227.4021      	1227.4294      	1227.4205      	1227.4728      	1227.4663      	1227.4198      	1227.4753      	1227.5372      	
1227.4624      	1227.5347      	1227.4911      	1227.4894      	1227.4446      	1227.4708      	1227.5044      	1227.5016      	1227.427       	1227.4473      	1227.4796      	1227.4193      	1227.3741      	1227.4128      	1227.4292      	1227.3811      	1227.3997      	1227.4441      	1227.4609      	1227.3859      	1227.4181      	1226.7761      	1227.1838      	1227.2231      	1227.2275      	1227.3086      	1227.411       	1227.4763      	1227.4999      	1227.5024      	1227.3926      	1227.4363      	1227.4669      	1227.5706      	1227.3157      	1227.4806      	1227.4691      	1227.4298      	1227.4608      	1227.4207      	1227.6022      	1227.4886      	1227.5995      	1227.5059      	1227.4708      	1227.4312      	1227.4271      	1227.2977      	1227.4701      	1227.4205      	1227.4192      	1227.4349      	1227.3212      	1227.4554      	1227.314       	1227.36        	1227.3959      	1227.4204      	1227.4357      	1227.4907      	1227.3962      	1227.4552      	1227.4713      	1227.3707      	1227.4246      	1227.3987      	1227.3933      	1227.4028      	1227.4651      	1227.4435      	1227.3972      	1227.3884      	1227.3795      	1227.4001      	1227.4152      	1227.3871      	1227.4663      	1227.3368      	1227.384       	1227.3817      	1227.5123      	1227.4126      	1227.4946      	1227.4343      	1227.4819      	1227.5111      	1227.4888      	1227.4872      	1227.5518      	1227.5499      	1227.5438      	1227.5828      	1227.5271      	1227.5852      	1227.5616      	1227.6097      	1227.6508      	1227.5842      	1227.5668      	1227.6101      	
1227.2374      	1227.2612      	1227.2802      	1227.2798      	1227.231       	1227.2677      	1227.226       	1227.2274      	1227.2219      	1227.214       	1227.1936      	1227.1155      	1227.1647      	1227.1213      	1227.16        	1227.1826      	1227.148       	1227.1323      	1227.1625      	1227.129       	1227.2109      	1226.5597      	1226.7991      	1226.9739      	1227.0541      	1227.0656      	1227.0928      	1227.2944      	1227.0868      	1227.2092      	1227.2554      	1227.225       	1227.2008      	1227.3396      	1227.1294      	1227.107       	1227.2482      	1227.1702      	1227.2428      	1227.3673      	1227.1952      	1227.1816      	1227.1233      	1227.1028      	1227.155       	1227.1233      	1227.1726      	1227.1467      	1227.1401      	1227.155       	1227.1298      	1227.1512      	1227.089       	1227.1193      	1227.1318      	1227.1104      	1227.1061      	1227.1235      	1227.134       	1227.1896      	1227.1694      	1227.1466      	1227.1486      	1227.1528      	1227.115       	1227.1427      	1227.1534      	1227.0817      	1227.1204      	1227.1534      	1227.1516      	1227.1157      	1227.1555      	1227.148       	1227.1638      	1227.17        	1227.1702      	1227.1353      	1227.1882      	1227.1305      	1227.237       	1227.2235      	1227.1936      	1227.2108      	1227.2538      	1227.1895      	1227.2133      	1227.2018      	1227.2721      	1227.2697      	1227.2697      	1227.3308      	1227.3019      	1227.2645      	1227.41        	1227.4067      	1227.369       	1227.3762      	1227.4017      	1227.3723      	
1227.5449      	1227.5962      	1227.6052      	1227.578       	1227.5345      	1227.5377      	1227.5598      	1227.5398      	1227.5289      	1227.522       	1227.4875      	1227.4794      	1227.4608      	1227.4929      	1227.439       	1227.4147      	1227.4696      	1227.4354      	1227.412       	1227.4989      	1227.5708      	1227.2404      	1227.1664      	1227.4113      	1227.2522      	1227.3152      	1227.312       	1227.5074      	1227.5388      	1227.3887      	1227.5369      	1227.4906      	1227.4758      	1227.4904      	1227.5906      	1227.6106      	1227.3988      	1227.45        	1227.4657      	1227.4337      	1227.4592      	1227.4686      	1227.4357      	1227.4146      	1227.4247      	1227.4296      	1227.4333      	1227.4236      	1227.4137      	1227.4086      	1227.4408      	1227.4314      	1227.4686      	1227.4464      	1227.4431      	1227.4926      	1227.4421      	1227.4889      	1227.4426      	1227.5254      	1227.4329      	1227.4305      	1227.4838      	1227.4366      	1227.3909      	1227.4581      	1227.47        	1227.4003      	1227.4667      	1227.4192      	1227.4644      	1227.4176      	1227.4028      	1227.4369      	1227.4458      	1227.411       	1227.4663      	1227.4077      	1227.4626      	1227.4543      	1227.4158      	1227.4836      	1227.4596      	1227.4298      	1227.5448      	1227.4271      	1227.4641      	1227.51        	1227.5095      	1227.4573      	1227.5796      	1227.4713      	1227.6246      	1227.4875      	1227.6189      	1227.5948      	1227.6652      	1227.5487      	1227.3622      	1227.5493      	
1227.5092      	1227.458       	1227.5315      	1227.5514      	1227.4559      	1227.5011      	1227.5042      	1227.5021      	1227.481       	1227.4381      	1227.4441      	1227.466       	1227.429       	1227.4006      	1227.4084      	1227.4312      	1227.4563      	1227.428       	1227.4337      	1227.4546      	1227.4608      	1227.4884      	1227.3794      	1227.2489      	1227.1844      	1227.355       	1227.4321      	1227.3595      	1227.4661      	1227.4441      	1227.6547      	1227.6093      	1227.4219      	1227.477       	1227.468       	1227.445       	1227.3916      	1227.4443      	1227.412       	1227.397       	1227.4227      	1227.3569      	1227.3677      	1227.3645      	1227.3777      	1227.3849      	1227.3677      	1227.3641      	1227.39        	1227.3851      	1227.3214      	1227.371       	1227.4199      	1227.3173      	1227.3625      	1227.3666      	1227.3527      	1227.3353      	1227.3723      	1227.3765      	1227.379       	1227.3484      	1227.4165      	1227.3434      	1227.4178      	1227.3254      	1227.388       	1227.3519      	1227.4192      	1227.3251      	1227.4556      	1227.3713      	1227.4353      	1227.4406      	1227.3484      	1227.4769      	1227.4325      	1227.4426      	1227.4384      	1227.3766      	1227.434       	1227.4716      	1227.4453      	1227.4695      	1227.4836      	1227.5049      	1227.4397      	1227.5574      	1227.5217      	1227.5293      	1227.5061      	1227.5123      	1227.5743      	1227.5676      	1227.569       	1227.6294      	1227.7577      	1227.529       	1227.3608      	1227.6039      	
1227.4403      	1227.3494      	1227.4454      	1227.4366      	1227.3481      	1227.3752      	1227.4021      	1227.3654      	1227.325       	1227.3351      	1227.2928      	1227.2943      	1227.4058      	1227.3136      	1227.2771      	1227.236       	1227.3524      	1227.2375      	1227.3055      	1227.3325      	1227.2865      	1227.2482      	1227.2804      	1227.4038      	1227.2004      	1227.2361      	1227.2997      	1227.3478      	1227.3762      	1227.3069      	1227.3452      	1227.3466      	1227.3286      	1227.3456      	1227.328       	1227.3582      	1227.364       	1227.379       	1227.3326      	1227.315       	1227.3843      	1227.3778      	1227.33        	1227.3563      	1227.3553      	1227.3209      	1227.3269      	1227.3237      	1227.3224      	1227.3143      	1227.3387      	1227.3162      	1227.35        	1227.3634      	1227.2911      	1227.3433      	1227.3374      	1227.2837      	1227.3589      	1227.3765      	1227.3809      	1227.3402      	1227.3645      	1227.3627      	1227.3472      	1227.3328      	1227.4276      	1227.3911      	1227.4171      	1227.3729      	1227.3977      	1227.3839      	1227.394       	1227.4193      	1227.428       	1227.4031      	1227.3901      	1227.41        	1227.48        	1227.3845      	1227.4418      	1227.4769      	1227.4318      	1227.493       	1227.4905      	1227.4618      	1227.521       	1227.5332      	1227.5508      	1227.5594      	1227.5265      	1227.4962      	1227.5936      	1227.8022      	1227.5132      	1227.4259      	1227.6193      	1227.6414      	1227.7151      	1227.7501      	
1227.1372      	1227.1191      	1227.1943      	1227.2625      	1227.1605      	1227.1259      	1227.1765      	1227.1388      	1227.1106      	1227.103       	1227.0662      	1227.1805      	1227.0586      	1226.994       	1227.114       	1227.0593      	1227.0458      	1227.116       	1227.0862      	1227.0272      	1227.0211      	1227.086       	1227.0757      	1227.0897      	1227.076       	1227.112       	1227.0537      	1227.1257      	1227.1108      	1227.1946      	1227.0607      	1227.117       	1227.1406      	1227.1202      	1227.1366      	1227.088       	1227.1177      	1227.1493      	1227.2124      	1227.2074      	1227.1345      	1227.1619      	1227.1149      	1227.1637      	1227.0848      	1227.0978      	1227.0726      	1227.0326      	1227.1261      	1227.0939      	1227.1108      	1227.1005      	1227.155       	1227.1047      	1227.137       	1227.104       	1227.1274      	1227.1082      	1227.1564      	1227.1984      	1227.1846      	1227.1036      	1227.1826      	1227.164       	1227.1863      	1227.1993      	1227.1941      	1227.1887      	1227.1759      	1227.1842      	1227.1932      	1227.1903      	1227.204       	1227.2155      	1227.1981      	1227.2118      	1227.1993      	1227.211       	1227.1906      	1227.202       	1227.2267      	1227.2935      	1227.2075      	1227.2671      	1227.2968      	1227.2751      	1227.2786      	1227.296       	1227.3147      	1227.28        	1227.3522      	1227.3517      	1227.3146      	1227.408       	1227.3917      	1227.3955      	1227.4142      	1227.3992      	1227.3848      	1227.4305      	
1227.1962      	1227.0654      	1227.1233      	1227.1173      	1227.1099      	1227.1222      	1227.0767      	1227.0631      	1227.0535      	1227.0482      	1227.0061      	1226.996       	1226.9841      	1226.9694      	1226.9901      	1226.95        	1227.0056      	1226.9349      	1227.0897      	1226.9896      	1226.9851      	1226.9731      	1227.034       	1227.0481      	1226.9695      	1227.0297      	1226.9963      	1226.9423      	1226.9781      	1227.0637      	1227.0349      	1227.0094      	1227.0424      	1227.0222      	1227.0679      	1227.0908      	1227.0049      	1227.0718      	1227.016       	1226.979       	1227.027       	1226.9948      	1227           	1227.006       	1226.9784      	1227.0259      	1227.044       	1226.9966      	1227.0304      	1226.9926      	1227.0426      	1227.031       	1227.07        	1227.0938      	1227.0764      	1227.0468      	1227.0569      	1227.1096      	1227.1179      	1227.0652      	1227.1093      	1227.1537      	1227.0873      	1227.1964      	1227.1385      	1227.0966      	1227.1599      	1227.1572      	1227.1221      	1227.1688      	1227.1608      	1227.1826      	1227.1744      	1227.1946      	1227.1869      	1227.1691      	1227.1992      	1227.1321      	1227.2029      	1227.2684      	1227.1803      	1227.2366      	1227.2222      	1227.2501      	1227.2659      	1227.2621      	1227.2147      	1227.2362      	1227.3427      	1227.2649      	1227.3348      	1227.3151      	1227.3154      	1227.3739      	1227.3619      	1227.3433      	1227.3765      	1227.257       	1227.1907      	1227.1788      	
1227.5701      	1227.371       	1227.3687      	1227.3953      	1227.3123      	1227.3285      	1227.3059      	1227.281       	1227.2235      	1227.2821      	1227.2521      	1227.2585      	1227.2255      	1227.3036      	1227.2283      	1227.197       	1227.2239      	1227.2689      	1227.189       	1227.2487      	1227.1671      	1227.2042      	1227.2358      	1227.1956      	1227.1847      	1227.1906      	1227.2511      	1227.2119      	1227.1102      	1227.2225      	1227.2589      	1227.2476      	1227.2433      	1227.2518      	1227.2252      	1227.24        	1227.2789      	1227.2462      	1227.1835      	1227.3113      	1227.1782      	1227.2874      	1227.2424      	1227.2303      	1227.2073      	1227.198       	1227.1777      	1227.239       	1227.1985      	1227.1798      	1227.2322      	1227.1925      	1227.1636      	1227.266       	1227.2065      	1227.2834      	1227.2021      	1227.2706      	1227.2438      	1227.3114      	1227.2537      	1227.3025      	1227.2554      	1227.3279      	1227.2319      	1227.3013      	1227.29        	1227.2651      	1227.2944      	1227.1675      	1227.3715      	1227.2568      	1227.3191      	1227.2987      	1227.2632      	1227.3003      	1227.3054      	1227.299       	1227.3423      	1227.3204      	1227.324       	1227.3732      	1227.3444      	1227.4067      	1227.3274      	1227.3855      	1227.38        	1227.37        	1227.3641      	1227.4567      	1227.4252      	1227.436       	1227.3876      	1227.3853      	1227.4589      	1227.4524      	1227.5706      	1227.3855      	1227.2606      	1227.3113      	
1227.692       	1227.4153      	1227.4744      	1227.3857      	1227.5021      	1227.3488      	1227.3743      	1227.3547      	1227.4031      	1227.3418      	1227.3562      	1227.3335      	1227.3231      	1227.3717      	1227.3047      	1227.3635      	1227.3188      	1227.3448      	1227.3019      	1227.3193      	1227.2863      	1227.3706      	1227.383       	1227.2642      	1227.3583      	1227.3684      	1227.365       	1227.3499      	1227.3374      	1227.4152      	1227.3752      	1227.3699      	1227.3907      	1227.4132      	1227.3032      	1227.3914      	1227.3851      	1227.3492      	1227.383       	1227.3557      	1227.3407      	1227.3772      	1227.3429      	1227.3635      	1227.3691      	1227.315       	1227.3862      	1227.3536      	1227.3846      	1227.4218      	1227.3319      	1227.367       	1227.3773      	1227.4005      	1227.412       	1227.3961      	1227.4073      	1227.4325      	1227.4381      	1227.4192      	1227.379       	1227.377       	1227.472       	1227.417       	1227.4531      	1227.4407      	1227.4363      	1227.4446      	1227.4752      	1227.4052      	1227.4548      	1227.4587      	1227.4407      	1227.4666      	1227.4719      	1227.4587      	1227.5444      	1227.4933      	1227.5099      	1227.5006      	1227.5253      	1227.5504      	1227.4934      	1227.5741      	1227.5519      	1227.6057      	1227.5743      	1227.625       	1227.5984      	1227.629       	1227.5854      	1227.6395      	1227.55        	1227.658       	1227.6333      	1227.6647      	1227.6512      	1227.614       	1227.5681      	1227.5299      	
1227.5013      	1227.3895      	1227.3099      	1227.3519      	1227.3424      	1227.222       	1227.305       	1227.229       	1227.2772      	1227.1934      	1227.2311      	1227.2168      	1227.197       	1227.1852      	1227.265       	1227.1287      	1227.2214      	1227.2856      	1227.2073      	1227.2761      	1227.2954      	1227.3014      	1227.3173      	1227.2974      	1227.3069      	1227.2815      	1227.3424      	1227.2615      	1227.2909      	1227.3453      	1227.3967      	1227.4048      	1227.3856      	1227.3475      	1227.325       	1227.405       	1227.3218      	1227.3799      	1227.3353      	1227.3826      	1227.352       	1227.3827      	1227.3798      	1227.3708      	1227.347       	1227.3889      	1227.3268      	1227.3036      	1227.3241      	1227.3276      	1227.3273      	1227.3336      	1227.3887      	1227.4221      	1227.3767      	1227.4437      	1227.3765      	1227.4745      	1227.4739      	1227.4185      	1227.4728      	1227.5135      	1227.4781      	1227.4479      	1227.4696      	1227.5077      	1227.4575      	1227.4923      	1227.4559      	1227.4725      	1227.5056      	1227.5162      	1227.5094      	1227.5457      	1227.5221      	1227.5339      	1227.5767      	1227.5468      	1227.5773      	1227.6122      	1227.6208      	1227.5693      	1227.6537      	1227.6072      	1227.6516      	1227.6685      	1227.6298      	1227.6584      	1227.6735      	1227.7039      	1227.6771      	1227.655       	1227.6583      	1227.7108      	1227.5781      	1227.7291      	1227.6909      	1227.6746      	1227.5214      	1227.4469      	
1227.2721      	1227.1399      	1227.1082      	1227.0999      	1227.112       	1227.0833      	1227.0907      	1227.0503      	1227.0276      	1227.0835      	1227.0471      	1227.0803      	1227.0592      	1227.1064      	1227.0314      	1227.0261      	1227.1013      	1227.08        	1227.1139      	1227.0593      	1227.0812      	1227.1229      	1227.1102      	1227.1548      	1227.1077      	1227.1877      	1227.132       	1227.1145      	1227.1632      	1227.1495      	1227.2065      	1227.101       	1227.198       	1227.1165      	1227.2128      	1227.1361      	1227.1719      	1227.186       	1227.1393      	1227.1653      	1227.1594      	1227.0696      	1227.2251      	1227.129       	1227.1534      	1227.1565      	1227.1552      	1227.1931      	1227.1898      	1227.2535      	1227.0538      	1227.1411      	1227.2272      	1227.1796      	1227.2068      	1227.1964      	1227.2372      	1227.2007      	1227.3319      	1227.2733      	1227.2463      	1227.3041      	1227.2454      	1227.2745      	1227.2054      	1227.2673      	1227.3801      	1227.3125      	1227.2843      	1227.3236      	1227.3286      	1227.3269      	1227.3173      	1227.3705      	1227.3401      	1227.3745      	1227.3964      	1227.3019      	1227.3334      	1227.4037      	1227.3773      	1227.406       	1227.4403      	1227.4087      	1227.3376      	1227.4901      	1227.533       	1227.4891      	1227.4377      	1227.4608      	1227.4587      	1227.4729      	1227.4564      	1227.4515      	1227.4038      	1227.5027      	1227.4124      	1227.4675      	1227.3937      	1227.3898      	
1226.8223      	1226.8417      	1226.8423      	1226.7615      	1226.7772      	1226.7771      	1226.8573      	1226.7191      	1226.7732      	1226.7515      	1226.7751      	1226.8019      	1226.8027      	1226.7358      	1226.7732      	1226.7635      	1226.7356      	1226.7997      	1226.819       	1226.7603      	1226.7788      	1226.7963      	1226.7836      	1226.8276      	1226.7715      	1226.8215      	1226.8069      	1226.8333      	1226.855       	1226.844       	1226.849       	1226.8179      	1226.8318      	1226.8112      	1226.8112      	1226.8474      	1226.8364      	1226.8169      	1226.8474      	1226.8206      	1226.7954      	1226.8042      	1226.8909      	1226.7761      	1226.8579      	1226.8378      	1226.8425      	1226.8673      	1227.0717      	1226.9093      	1226.7498      	1226.8386      	1227.012       	1226.9587      	1226.9602      	1226.9653      	1226.966       	1226.9774      	1226.8971      	1227.0096      	1227.0846      	1227.0555      	1227.0876      	1227.1226      	1227.0651      	1227.0885      	1227.0168      	1227.0597      	1227.0647      	1227.0604      	1227.114       	1227.0966      	1227.023       	1227.0703      	1227.0164      	1227.0969      	1227.0802      	1227.0808      	1227.1045      	1227.1394      	1227.1433      	1227.166       	1227.1383      	1227.1202      	1227.1274      	1227.1152      	1227.1528      	1227.1636      	1227.1882      	1227.173       	1227.1412      	1227.1892      	1227.1442      	1227.1241      	1227.1428      	1227.1406      	1227.1592      	1227.1226      	1227.0669      	1227.0858      	
1226.6604      	1226.6962      	1226.6235      	1226.6206      	1226.625       	1226.5885      	1226.6381      	1226.5552      	1226.5579      	1226.5616      	1226.5803      	1226.5876      	1226.59        	1226.58        	1226.5891      	1226.5905      	1226.5581      	1226.6226      	1226.5846      	1226.5833      	1226.6268      	1226.6001      	1226.5975      	1226.6606      	1226.6116      	1226.5814      	1226.6892      	1226.5933      	1226.5729      	1226.6642      	1226.7079      	1226.6182      	1226.6562      	1226.638       	1226.607       	1226.6687      	1226.626       	1226.6052      	1226.591       	1226.5935      	1226.6809      	1226.5316      	1226.6053      	1226.621       	1226.5812      	1226.6537      	1226.6428      	1226.6421      	1226.6599      	1226.6302      	1226.6749      	1226.64        	1226.6572      	1226.6716      	1226.6691      	1226.7114      	1226.7183      	1226.7158      	1226.7458      	1226.7004      	1226.7766      	1226.7839      	1226.7635      	1226.7987      	1226.7902      	1226.7313      	1226.8075      	1226.7958      	1226.8225      	1226.8693      	1226.8485      	1226.8389      	1226.8553      	1226.8273      	1226.8385      	1226.8387      	1226.839       	1226.8528      	1226.8035      	1226.8734      	1226.9109      	1226.9706      	1226.9         	1226.9839      	1226.9697      	1226.7965      	1226.9084      	1226.9176      	1226.9706      	1226.942       	1226.8247      	1226.9313      	1226.793       	1226.9373      	1226.8992      	1226.9038      	1226.8949      	1226.956       	1226.8328      	1226.7771      	
1226.8093      	1226.7476      	1226.7638      	1226.7368      	1226.7224      	1226.745       	1226.707       	1226.6864      	1226.6957      	1226.7003      	1226.688       	1226.7079      	1226.683       	1226.6835      	1226.6923      	1226.6804      	1226.7161      	1226.6827      	1226.6788      	1226.7505      	1226.684       	1226.6909      	1226.7107      	1226.6405      	1226.7288      	1226.6964      	1226.6915      	1226.6964      	1226.6692      	1226.6987      	1226.6517      	1226.7107      	1226.7045      	1226.6694      	1226.6649      	1226.6627      	1226.6505      	1226.6561      	1226.6714      	1226.6375      	1226.675       	1226.6091      	1226.7544      	1226.6946      	1226.6901      	1226.7085      	1226.6965      	1226.7576      	1226.7246      	1226.677       	1226.7924      	1226.6669      	1226.762       	1226.8123      	1226.7413      	1226.7566      	1226.8136      	1226.8654      	1226.818       	1226.7891      	1226.8477      	1226.8247      	1226.8312      	1226.866       	1226.8071      	1226.7872      	1226.7528      	1226.8527      	1226.8304      	1226.7762      	1226.7997      	1226.7576      	1226.9396      	1226.8545      	1226.8156      	1226.9106      	1226.8423      	1226.8027      	1226.9198      	1226.8134      	1226.8738      	1226.8876      	1226.8853      	1226.908       	1226.8735      	1226.9143      	1226.8622      	1226.9519      	1226.9084      	1226.8588      	1226.887       	1226.8223      	1226.8552      	1226.8937      	1227.0021      	1226.9044      	1226.5602      	1226.4026      	1226.2771      	1226.3601      	
1227.2255      	1227.1365      	1227.1589      	1227.0963      	1227.0979      	1227.048       	1227.1173      	1227.0704      	1227.1001      	1227.0875      	1227.0154      	1227.0483      	1227.0559      	1227.0796      	1227.095       	1227.1464      	1227.0538      	1227.1072      	1227.129       	1227.0712      	1227.1296      	1227.0814      	1227.1381      	1227.1791      	1227.131       	1227.1216      	1227.132       	1227.1346      	1227.1378      	1227.1324      	1227.09        	1227.0848      	1227.1635      	1227.1174      	1227.1061      	1227.1055      	1227.0276      	1227.1282      	1227.0852      	1227.1243      	1227.0786      	1227.1306      	1227.101       	1227.0372      	1227.0819      	1227.0685      	1227.0769      	1227.0923      	1227.031       	1227.1177      	1227.0922      	1227.1154      	1227.0363      	1227.106       	1227.1405      	1227.2129      	1227.0991      	1227.1654      	1227.116       	1227.1389      	1227.1317      	1227.1724      	1227.1138      	1227.2723      	1227.1316      	1227.1296      	1227.1512      	1227.0831      	1227.1295      	1227.1649      	1227.1254      	1227.1482      	1227.0748      	1227.159       	1227.1213      	1227.2023      	1227.1063      	1227.1619      	1227.139       	1227.1908      	1227.2196      	1227.1877      	1227.1238      	1227.2126      	1227.2063      	1227.1967      	1227.1909      	1227.1978      	1227.2145      	1227.1183      	1227.2235      	1227.2426      	1227.3033      	1226.8761      	1226.9058      	1226.8748      	1226.9194      	1226.8796      	1226.8348      	1226.8842      	
1227.2405      	1227.2643      	1227.2041      	1227.2898      	1227.2603      	1227.1831      	1227.2316      	1227.155       	1227.1838      	1227.2009      	1227.2389      	1227.1626      	1227.1835      	1227.2513      	1227.1554      	1227.3058      	1227.2263      	1227.2694      	1227.2528      	1227.224       	1227.2684      	1227.2258      	1227.2714      	1227.2938      	1227.2799      	1227.2416      	1227.2544      	1227.3376      	1227.329       	1227.2474      	1227.2983      	1227.2772      	1227.2893      	1227.295       	1227.263       	1227.2618      	1227.3444      	1227.2985      	1227.3131      	1227.3262      	1227.3208      	1227.326       	1227.3295      	1227.3009      	1227.3497      	1227.3354      	1227.3492      	1227.3527      	1227.3557      	1227.3652      	1227.3962      	1227.3903      	1227.3959      	1227.3606      	1227.4331      	1227.4373      	1227.3612      	1227.4554      	1227.408       	1227.5386      	1227.4457      	1227.367       	1227.5277      	1227.477       	1227.3794      	1227.4346      	1227.4579      	1227.3507      	1227.4475      	1227.4631      	1227.3751      	1227.3997      	1227.4514      	1227.429       	1227.4127      	1227.4296      	1227.4137      	1227.4358      	1227.4568      	1227.4641      	1227.4647      	1227.4553      	1227.5212      	1227.4658      	1227.4935      	1227.4598      	1227.5358      	1227.4835      	1227.4526      	1227.4637      	1227.5907      	1226.9562      	1226.8596      	1227.2081      	1227.3103      	1227.3639      	1227.1985      	1227.1556      	1227.2853      	1227.2683      	
1227.1598      	1227.1714      	1227.2072      	1227.2024      	1227.1073      	1227.2386      	1227.1511      	1227.1766      	1227.1674      	1227.1647      	1227.2001      	1227.1421      	1227.2095      	1227.1666      	1227.2284      	1227.19        	1227.1975      	1227.2101      	1227.2955      	1227.2805      	1227.1622      	1227.2701      	1227.3124      	1227.2332      	1227.2852      	1227.1897      	1227.2524      	1227.2476      	1227.314       	1227.3049      	1227.2775      	1227.2433      	1227.2612      	1227.292       	1227.2451      	1227.2755      	1227.2738      	1227.2493      	1227.2714      	1227.277       	1227.2432      	1227.2139      	1227.2719      	1227.362       	1227.2928      	1227.3191      	1227.2869      	1227.3207      	1227.3124      	1227.3004      	1227.3727      	1227.4358      	1227.2589      	1227.395       	1227.3523      	1227.3622      	1227.4246      	1227.4337      	1227.424       	1227.342       	1227.4501      	1227.3324      	1227.4868      	1227.3638      	1227.4215      	1227.4364      	1227.4105      	1227.3943      	1227.367       	1227.4852      	1227.4175      	1227.4143      	1227.3948      	1227.4548      	1227.3893      	1227.4296      	1227.4268      	1227.4718      	1227.4939      	1227.4664      	1227.4485      	1227.4706      	1227.4581      	1227.523       	1227.4016      	1227.302       	1227.4366      	1227.4791      	1227.4221      	1227.4788      	1226.8759      	1227.0571      	1227.0144      	1227.2507      	1227.3442      	1227.3007      	1227.2909      	1227.2659      	1227.2736      	1227.2837      	
