# www.neaspec.com
# Scan:	 	Whitelight Imaging
# Project:	 	20251007_PS
# Description:	 	
# Date:	 	10/07/2025 16:39:17
# Scanner Center Position (X, Y):	[µm]	49.66	48.17	 
# Rotation:	[°]	0	 	 
# Scan Area (X, Y, Z):	[µm]	5.000	5.000	0.000
# Pixel Area (X, Y, Z):	[px]	100	100	1
# Interferometer Center/Distance:	[µm]	548.634	0.000	 
# Averaging:	 	1	 	 
# Integration time:	[ms]	5	 	 
# Wavenumber Scaling:	 	1.000000	 	 
# Laser Source:	 	4.5-15 µm nano-FTIR laser
# Detector:	 	R
# Target Wavelength:	[µm]	6.002	 	 
# Demodulation Mode:	 	Fourier
# Tip Frequency:	[Hz]	238,800.109	 	 
# Tip Amplitude:	[mV]	13.000	 	 
# Tapping Amplitude:	[nm]	69.706	 	 
# Modulation Frequency:	[Hz]	0.000	 	 
# Modulation Amplitude:	[mV]	0.000	 	 
# Modulation Offset:	[mV]	0.000	 	 
# Setpoint:	[%]	79.75	 	 
# Regulator (P, I, D):	 	4.206850	8.625812	1.000000
# Tip Potential:	[mV]	0.000	 	 
# M1A Scaling:	[nm/V]	0.426	 	 
# M1A Cantilever Factor:	 	1,000	 	 
# Q-Factor:	 	452.3	 	 
# Version:	 	2.1.11536.0
220.46014      	220.45302      	220.5026       	220.48752      	220.51495      	220.47531      	220.46213      	220.50082      	220.48079      	220.46231      	220.45686      	220.4432       	220.42825      	220.4933       	220.50653      	220.4796       	220.50768      	220.45769      	220.50041      	220.49347      	220.45018      	220.48332      	220.48029      	220.47769      	220.45042      	220.46866      	220.44943      	220.43686      	220.48349      	220.45953      	220.49086      	220.45074      	220.41985      	220.44667      	220.43097      	220.44989      	220.4745       	220.43869      	220.42189      	220.46365      	220.47467      	220.46286      	220.4818       	220.51833      	220.47128      	220.50975      	220.5173       	220.47112      	220.48749      	220.44029      	220.4551       	220.48357      	220.44716      	220.48851      	220.47633      	220.44887      	220.48668      	220.51773      	220.53477      	220.52505      	220.50552      	220.51955      	220.47707      	220.47835      	220.45482      	220.4755       	220.4643       	220.45815      	220.46283      	220.48293      	220.4461       	220.4454       	220.44075      	220.41925      	220.4555       	220.44757      	220.44843      	220.45982      	220.44028      	220.4571       	220.44547      	220.46298      	220.41414      	220.40422      	220.4296       	220.40294      	220.42874      	220.4263       	220.41121      	220.4321       	220.45001      	220.40907      	220.41855      	220.40944      	220.42783      	220.4465       	220.4206       	220.40184      	220.41577      	220.4116       	
220.5012       	220.51114      	220.51907      	220.53891      	220.52231      	220.53262      	220.50531      	220.50314      	220.50992      	220.48898      	220.49544      	220.47948      	220.47092      	220.50185      	220.53058      	220.49362      	220.4979       	220.48796      	220.53929      	220.5121       	220.52077      	220.47781      	220.51683      	220.55344      	220.51173      	220.49602      	220.48796      	220.47704      	220.48476      	220.48343      	220.51785      	220.52205      	220.531        	220.50757      	220.5201       	220.51668      	220.52611      	220.51154      	220.50821      	220.46655      	220.53311      	220.51662      	220.50534      	220.50781      	220.50307      	220.55418      	220.51881      	220.51808      	220.51724      	220.53156      	220.53215      	220.52933      	220.52962      	220.56216      	220.54471      	220.51538      	220.58385      	220.5624       	220.56967      	220.59796      	220.53925      	220.53445      	220.49626      	220.52034      	220.49347      	220.49734      	220.48665      	220.48576      	220.48013      	220.47433      	220.45888      	220.5049       	220.44833      	220.46642      	220.43568      	220.44467      	220.45778      	220.46867      	220.47919      	220.49796      	220.48431      	220.47911      	220.48553      	220.50365      	220.46759      	220.50479      	220.50577      	220.48244      	220.47136      	220.47437      	220.45233      	220.47755      	220.4446       	220.43318      	220.44725      	220.4662       	220.44214      	220.42589      	220.43912      	220.42255      	
220.52867      	220.54698      	220.54443      	220.53987      	220.52586      	220.5069       	220.51724      	220.5513       	220.52895      	220.52989      	220.51862      	220.50119      	220.49742      	220.51695      	220.57127      	220.58725      	220.55322      	220.55965      	220.5354       	220.55127      	220.55363      	220.5392       	220.54831      	220.51758      	220.55507      	220.5289       	220.5625       	220.56595      	220.50128      	220.52759      	220.53189      	220.54605      	220.58209      	220.52477      	220.54208      	220.54074      	220.51686      	220.56152      	220.54298      	220.5391       	220.59578      	220.55551      	220.54083      	220.5542       	220.52776      	220.55298      	220.55092      	220.53613      	220.54346      	220.5349       	220.52321      	220.60931      	220.59286      	220.57631      	220.59991      	220.59653      	220.60896      	220.59837      	220.60507      	220.58513      	220.57292      	220.55907      	220.57462      	220.56168      	220.51898      	220.51399      	220.51765      	220.49942      	220.51065      	220.5455       	220.51149      	220.53067      	220.54593      	220.51639      	220.5091       	220.53766      	220.54744      	220.53505      	220.55382      	220.50984      	220.51384      	220.53938      	220.48871      	220.5148       	220.53099      	220.49718      	220.49521      	220.55698      	220.55199      	220.5283       	220.50766      	220.52272      	220.54103      	220.51677      	220.50314      	220.535        	220.53282      	220.51726      	220.53989      	220.53285      	
220.58664      	220.61783      	220.62225      	220.61195      	220.6215       	220.60672      	220.61403      	220.64825      	220.61366      	220.60843      	220.6263       	220.61928      	220.60919      	220.6321       	220.63428      	220.64209      	220.64868      	220.62343      	220.65585      	220.63889      	220.62419      	220.64085      	220.63347      	220.64154      	220.64767      	220.64412      	220.64694      	220.66032      	220.64275      	220.6407       	220.62625      	220.63698      	220.5873       	220.63176      	220.6203       	220.62167      	220.64044      	220.62836      	220.61456      	220.63242      	220.60081      	220.60541      	220.62628      	220.60336      	220.59789      	220.58154      	220.56406      	220.54524      	220.57928      	220.53795      	220.56061      	220.56174      	220.57895      	220.5582       	220.5761       	220.54308      	220.54845      	220.56087      	220.59676      	220.5818       	220.60565      	220.56512      	220.55307      	220.54335      	220.52357      	220.54132      	220.55591      	220.53589      	220.57169      	220.56453      	220.55228      	220.57625      	220.56883      	220.57178      	220.56516      	220.54393      	220.55794      	220.52487      	220.54305      	220.51666      	220.52173      	220.57118      	220.54997      	220.54475      	220.50357      	220.47835      	220.534        	220.50238      	220.52255      	220.52432      	220.54883      	220.52838      	220.50868      	220.50893      	220.4951       	220.52829      	220.54597      	220.51923      	220.51544      	220.52689      	
220.58612      	220.6477       	220.63419      	220.59683      	220.62173      	220.62253      	220.64513      	220.65309      	220.63257      	220.57527      	220.62685      	220.6245       	220.60497      	220.63145      	220.61296      	220.631        	220.63135      	220.60497      	220.6139       	220.6149       	220.61542      	220.63968      	220.63264      	220.63792      	220.60472      	220.58675      	220.59767      	220.61133      	220.62614      	220.61644      	220.60452      	220.60304      	220.5657       	220.61328      	220.59898      	220.5753       	220.58966      	220.60277      	220.61485      	220.62575      	220.62717      	220.60092      	220.61043      	220.62042      	220.57266      	220.59193      	220.59961      	220.5989       	220.59564      	220.6275       	220.64357      	220.61908      	220.61569      	220.65724      	220.63258      	220.66383      	220.65         	220.63762      	220.64998      	220.604        	220.58992      	220.64136      	220.64569      	220.6114       	220.5972       	220.59691      	220.6016       	220.63542      	220.59586      	220.61052      	220.5817       	220.5685       	220.58914      	220.60345      	220.59782      	220.62567      	220.62074      	220.59718      	220.67746      	220.59695      	220.59758      	220.63046      	220.60938      	220.6089       	220.62035      	220.59303      	220.58656      	220.56892      	220.63539      	220.62082      	220.69284      	220.61833      	220.57895      	220.62119      	220.61824      	220.59789      	220.59106      	220.60815      	220.59958      	220.59793      	
220.76987      	220.77173      	220.7444       	220.7784       	220.77428      	220.78116      	220.75319      	220.74358      	220.7669       	220.74615      	220.74463      	220.74187      	220.73172      	220.75775      	220.74132      	220.7802       	220.74179      	220.70206      	220.73288      	220.73302      	220.72855      	220.71127      	220.75056      	220.7378       	220.74542      	220.76273      	220.79056      	220.75114      	220.76514      	220.81047      	220.77074      	220.79582      	220.7734       	220.76566      	220.76346      	220.75195      	220.7628       	220.76328      	220.78119      	220.73259      	220.76443      	220.74376      	220.73192      	220.72401      	220.74802      	220.73932      	220.73436      	220.74144      	220.7663       	220.76102      	220.72472      	220.72437      	220.7234       	220.7268       	220.74191      	220.72249      	220.73283      	220.708        	220.75487      	220.73166      	220.76204      	220.72362      	220.77357      	220.72816      	220.7177       	220.71582      	220.70085      	220.72282      	220.71141      	220.73158      	220.75244      	220.7177       	220.72096      	220.75705      	220.75131      	220.72472      	220.74258      	220.74376      	220.71857      	220.75258      	220.70386      	220.74606      	220.74501      	220.72922      	220.72931      	220.73535      	220.7244       	220.7062       	220.72908      	220.7155       	220.71898      	220.69681      	220.70717      	220.72572      	220.7016       	220.70985      	220.7062       	220.70003      	220.73009      	220.72331      	
220.87071      	220.92227      	220.86742      	220.90291      	220.92604      	220.90164      	220.91277      	220.9043       	220.8995       	220.91478      	220.86398      	220.89348      	220.9065       	220.88046      	220.90598      	220.87785      	220.90204      	220.89366      	220.90472      	220.90924      	220.8982       	220.89545      	220.85155      	220.84866      	220.90121      	220.89166      	220.88968      	220.89168      	220.8622       	220.8885       	220.87318      	220.88219      	220.90134      	220.87987      	220.9059       	220.9127       	220.87834      	220.88644      	220.88702      	220.88487      	220.8646       	220.87135      	220.85402      	220.88882      	220.8635       	220.88599      	220.87329      	220.89923      	220.87288      	220.85167      	220.9018       	220.89024      	220.90234      	220.90001      	220.867        	220.8406       	220.8495       	220.88382      	220.94618      	220.92914      	220.87648      	220.88986      	220.86693      	220.91626      	220.89542      	220.88678      	220.9219       	220.94716      	220.95152      	220.91447      	220.87875      	220.87697      	220.86847      	220.87296      	220.85759      	220.88974      	220.83908      	220.89732      	220.8718       	220.85872      	220.8836       	220.84448      	220.81754      	220.82986      	220.83311      	220.85059      	220.85004      	220.88368      	220.85672      	220.86974      	220.832        	220.87025      	220.83382      	220.83739      	220.84494      	220.85378      	220.8921       	220.88728      	220.87434      	220.90945      	
220.8388       	220.8069       	220.82568      	220.81989      	220.81305      	220.86954      	220.85194      	220.80339      	220.8198       	220.80922      	220.82753      	220.79698      	220.80394      	220.81021      	220.82333      	220.80602      	220.8122       	220.81137      	220.7825       	220.78969      	220.79796      	220.79555      	220.80315      	220.80289      	220.7862       	220.81177      	220.81078      	220.82469      	220.81847      	220.7937       	220.82974      	220.8628       	220.83154      	220.83347      	220.82698      	220.82338      	220.81845      	220.81236      	220.79782      	220.79904      	220.83778      	220.84856      	220.8574       	220.85287      	220.86061      	220.83301      	220.88345      	220.87015      	220.83212      	220.87616      	220.86612      	220.8729       	220.86752      	220.869        	220.85612      	220.82756      	220.83322      	220.84608      	220.82484      	220.85109      	220.82018      	220.838        	220.80067      	220.85329      	220.8386       	220.85435      	220.83658      	220.8445       	220.85617      	220.88507      	220.91722      	220.83244      	220.84857      	220.85083      	220.8399       	220.83514      	220.88182      	220.86955      	220.83968      	220.84813      	220.8557       	220.83958      	220.83667      	220.83922      	220.88156      	220.86075      	220.8838       	220.86307      	220.88861      	220.87077      	220.85791      	220.85205      	220.88588      	220.86266      	220.85239      	220.8613       	220.87534      	220.85123      	220.84694      	220.84938      	
220.79967      	220.79218      	220.80963      	220.77377      	220.76253      	220.72304      	220.74814      	220.74918      	220.74063      	220.73552      	220.7346       	220.72513      	220.76532      	220.74655      	220.75946      	220.8043       	220.77028      	220.82236      	220.80981      	220.83694      	220.78856      	220.7824       	220.7832       	220.78265      	220.78758      	220.76146      	220.72844      	220.76399      	220.74478      	220.77075      	220.76593      	220.74603      	220.75569      	220.76765      	220.78111      	220.76732      	220.7693       	220.81226      	220.74393      	220.73209      	220.7771       	220.79385      	220.78458      	220.77785      	220.78215      	220.77638      	220.75404      	220.76918      	220.81412      	220.79099      	220.77156      	220.74635      	220.77255      	220.76848      	220.78792      	220.8185       	220.79198      	220.796        	220.80629      	220.80397      	220.78314      	220.77599      	220.8245       	220.75389      	220.74612      	220.79994      	220.7849       	220.78384      	220.79868      	220.81598      	220.81322      	220.79213      	220.80696      	220.82497      	220.81154      	220.8033       	220.80836      	220.81013      	220.82486      	220.8452       	220.84067      	220.84634      	220.85051      	220.87453      	220.84824      	220.84044      	220.83206      	220.8734       	220.85526      	220.84518      	220.81717      	220.83434      	220.82764      	220.83963      	220.8103       	220.85355      	220.8318       	220.83214      	220.85645      	220.83047      	
220.81674      	220.81964      	220.82156      	220.81082      	220.79588      	220.78827      	220.8036       	220.81203      	220.78769      	220.81464      	220.80142      	220.80167      	220.79128      	220.81787      	220.81851      	220.81404      	220.80418      	220.80705      	220.83156      	220.81027      	220.82487      	220.83015      	220.77547      	220.81544      	220.80353      	220.8378       	220.80434      	220.80618      	220.82324      	220.81493      	220.79922      	220.83246      	220.81757      	220.8016       	220.82367      	220.8085       	220.82294      	220.78452      	220.78474      	220.7891       	220.80466      	220.80936      	220.80551      	220.75017      	220.78995      	220.78989      	220.79906      	220.81671      	220.80249      	220.79266      	220.78864      	220.77048      	220.82477      	220.84125      	220.8205       	220.7897       	220.78882      	220.78065      	220.80428      	220.80846      	220.78815      	220.77013      	220.79637      	220.81746      	220.81209      	220.84357      	220.82185      	220.76196      	220.78299      	220.82716      	220.82123      	220.8039       	220.74268      	220.76527      	220.76234      	220.7219       	220.75742      	220.74686      	220.73347      	220.76324      	220.76175      	220.74168      	220.7657       	220.75903      	220.787        	220.78273      	220.78253      	220.76791      	220.77126      	220.78557      	220.77295      	220.7815       	220.78339      	220.76004      	220.76361      	220.7775       	220.80382      	220.79312      	220.76018      	220.78044      	
220.78741      	220.76317      	220.77379      	220.7622       	220.76263      	220.76102      	220.72108      	220.70204      	220.72765      	220.71805      	220.74847      	220.74007      	220.66861      	220.7173       	220.7456       	220.70023      	220.71803      	220.68405      	220.7049       	220.71896      	220.72667      	220.69211      	220.69937      	220.71585      	220.70497      	220.72755      	220.69899      	220.74313      	220.70847      	220.7128       	220.73407      	220.72385      	220.72568      	220.70665      	220.75421      	220.76187      	220.75821      	220.77682      	220.78514      	220.80223      	220.78069      	220.79791      	220.7973       	220.75642      	220.75597      	220.76828      	220.77904      	220.75462      	220.77507      	220.74489      	220.75133      	220.76643      	220.75658      	220.8231       	220.74371      	220.76613      	220.7438       	220.79091      	220.74857      	220.76808      	220.73875      	220.73465      	220.72533      	220.77975      	220.77385      	220.78342      	220.80777      	220.80423      	220.75014      	220.7627       	220.79872      	220.82953      	220.77596      	220.82372      	220.81888      	220.80647      	220.77829      	220.76004      	220.78352      	220.75284      	220.79733      	220.71701      	220.72284      	220.74484      	220.73598      	220.72604      	220.72443      	220.71628      	220.74039      	220.73392      	220.74258      	220.74425      	220.73427      	220.73427      	220.72585      	220.72801      	220.72809      	220.75945      	220.75815      	220.76376      	
220.74364      	220.75543      	220.71262      	220.70338      	220.70985      	220.71774      	220.69205      	220.6863       	220.7338       	220.73712      	220.69838      	220.7234       	220.71495      	220.7138       	220.70067      	220.75658      	220.75206      	220.75034      	220.68407      	220.74796      	220.71867      	220.73439      	220.70744      	220.72047      	220.70567      	220.71083      	220.71461      	220.69435      	220.69193      	220.70605      	220.73532      	220.70828      	220.77899      	220.75624      	220.77423      	220.76717      	220.75714      	220.70131      	220.71457      	220.72258      	220.72006      	220.72566      	220.71468      	220.71213      	220.7212       	220.69043      	220.74632      	220.73473      	220.71696      	220.7202       	220.68275      	220.6758       	220.7059       	220.6933       	220.69757      	220.69778      	220.66391      	220.6968       	220.70905      	220.68346      	220.67578      	220.7027       	220.70515      	220.68336      	220.67429      	220.68642      	220.69724      	220.69174      	220.64987      	220.66837      	220.68509      	220.6661       	220.66599      	220.68474      	220.66853      	220.6713       	220.67668      	220.71158      	220.71312      	220.67032      	220.64919      	220.70425      	220.69733      	220.66656      	220.69792      	220.69724      	220.68771      	220.70955      	220.70724      	220.69255      	220.7046       	220.68202      	220.6882       	220.7128       	220.67484      	220.69003      	220.70158      	220.69814      	220.70221      	220.7111       	
220.83325      	220.8125       	220.80045      	220.83586      	220.79848      	220.83116      	220.86562      	220.8334       	220.81448      	220.78128      	220.81151      	220.7929       	220.80214      	220.78035      	220.79753      	220.77284      	220.82787      	220.89806      	220.85231      	220.81177      	220.79425      	220.78387      	220.79816      	220.80382      	220.80006      	220.80734      	220.80653      	220.78525      	220.8162       	220.8109       	220.80647      	220.81413      	220.8016       	220.80577      	220.80544      	220.81795      	220.78627      	220.8266       	220.78644      	220.83287      	220.791        	220.77982      	220.78459      	220.80403      	220.77664      	220.77734      	220.79443      	220.80916      	220.80524      	220.76744      	220.74779      	220.79398      	220.75331      	220.77821      	220.79788      	220.81638      	220.77577      	220.78606      	220.80086      	220.78664      	220.79721      	220.77457      	220.76692      	220.80638      	220.75041      	220.78741      	220.7849       	220.75742      	220.76984      	220.72688      	220.79108      	220.77081      	220.75552      	220.74397      	220.74982      	220.77187      	220.73543      	220.76984      	220.7526       	220.8112       	220.79689      	220.8008       	220.81985      	220.87083      	220.82098      	220.81902      	220.81812      	220.83218      	220.81078      	220.82802      	220.8212       	220.7952       	220.78903      	220.86458      	220.81712      	220.8156       	220.82812      	220.82059      	220.81317      	220.83255      	
220.85904      	220.88004      	220.93245      	220.8919       	220.8911       	220.91798      	220.92389      	220.90057      	220.93007      	220.94467      	220.92352      	220.89467      	220.85286      	220.87762      	220.90367      	220.8852       	220.83406      	220.86354      	220.84586      	220.88004      	220.8806       	220.90704      	220.89201      	220.90536      	220.8954       	220.90392      	220.91031      	220.89903      	220.89885      	220.89792      	220.84009      	220.8664       	220.85802      	220.85515      	220.8705       	220.8815       	220.89386      	220.87662      	220.85756      	220.82454      	220.80814      	220.83363      	220.82765      	220.80714      	220.82127      	220.80685      	220.83185      	220.81894      	220.8381       	220.8301       	220.83441      	220.82018      	220.8431       	220.83754      	220.81354      	220.83502      	220.85603      	220.85374      	220.83562      	220.76724      	220.79494      	220.79477      	220.80405      	220.82057      	220.79395      	220.80507      	220.78888      	220.78207      	220.79948      	220.79115      	220.7879       	220.77945      	220.80255      	220.7775       	220.79498      	220.8087       	220.78957      	220.82362      	220.84215      	220.85149      	220.84595      	220.81468      	220.80922      	220.82565      	220.83344      	220.81096      	220.8244       	220.82022      	220.78387      	220.84047      	220.83698      	220.81314      	220.82259      	220.83327      	220.76321      	220.82016      	220.80023      	220.81453      	220.83261      	220.79039      	
220.87247      	220.86533      	220.87921      	220.88425      	220.87381      	220.8732       	220.87355      	220.87733      	220.89119      	220.88998      	220.89615      	220.88527      	220.8619       	220.89737      	220.8747       	220.86606      	220.89095      	220.85306      	220.89932      	220.85774      	220.87515      	220.889        	220.86409      	220.87721      	220.87091      	220.86403      	220.8816       	220.88043      	220.88602      	220.89455      	220.85385      	220.85399      	220.85277      	220.88104      	220.85316      	220.84764      	220.85464      	220.84343      	220.85994      	220.90904      	220.86314      	220.90056      	220.87323      	220.87941      	220.91656      	220.88954      	220.86191      	220.90807      	220.8754       	220.87779      	220.85748      	220.90575      	220.87206      	220.85477      	220.85216      	220.89757      	220.90517      	220.9022       	220.88918      	220.87726      	220.85463      	220.85019      	220.86652      	220.8811       	220.87077      	220.8716       	220.91846      	220.91618      	220.93785      	220.9323       	220.9195       	220.92169      	220.92352      	220.9232       	220.91583      	220.92657      	220.95409      	220.8946       	220.91852      	220.89494      	220.88998      	220.88661      	220.91751      	220.89757      	220.91966      	220.91772      	220.91867      	220.88158      	220.89835      	220.90146      	220.92424      	220.89664      	220.89291      	220.91107      	220.8967       	220.90419      	220.86989      	220.90994      	220.86781      	220.85968      	
221.00824      	221.02704      	221.00815      	221.00911      	221.02724      	221.01022      	220.99477      	221.03587      	220.97708      	221.00911      	221.02292      	220.98392      	221.02585      	221.00969      	220.96254      	221.00792      	221.00992      	220.96353      	220.96451      	220.97333      	220.99704      	220.96193      	220.99275      	221.00662      	220.95818      	221.00041      	220.98557      	221.00034      	220.97063      	220.96954      	220.95815      	220.96243      	220.98048      	220.96744      	220.9751       	220.9615       	220.95895      	220.97263      	220.95628      	220.98012      	220.93996      	220.96451      	220.97232      	221.02605      	221.00269      	220.94603      	220.96127      	220.98009      	220.98236      	220.97435      	220.99576      	221.00577      	220.9796       	221.0062       	221.02805      	221.02036      	220.98033      	220.96266      	220.95964      	220.93459      	220.93301      	220.93802      	220.92787      	220.94156      	220.94467      	220.9437       	220.94385      	220.93675      	220.93497      	220.94556      	220.9204       	220.9649       	220.94206      	220.89906      	220.92667      	220.91127      	220.91322      	220.93102      	220.90224      	220.91727      	220.90465      	220.88316      	220.92128      	220.89966      	220.9192       	220.92455      	220.89218      	220.9166       	220.91731      	220.90375      	220.9285       	220.92113      	220.87184      	220.94238      	220.92308      	220.92044      	220.8961       	220.94759      	220.89827      	220.88675      	
220.9322       	220.9632       	220.92496      	220.97482      	220.96298      	220.9634       	220.95717      	221.00331      	220.99393      	220.97873      	220.9794       	220.95396      	220.9708       	220.97472      	221.0215       	221.02791      	220.99783      	220.97949      	221.02605      	220.98277      	220.98308      	221.01715      	221.00365      	220.97444      	220.98935      	221.02817      	221.02774      	221.01466      	221.00275      	221.02374      	221.00291      	221.00032      	221.0233       	221.00829      	221.01907      	221.01288      	221.02179      	221.02109      	221.04105      	221.0415       	221.04988      	221.0294       	221.035        	221.04402      	221.02545      	221.01433      	221.01315      	221.0412       	220.99591      	221.02148      	220.99031      	221.03835      	221.04427      	221.01952      	221.02716      	221.01244      	220.98514      	221.0023       	221.03027      	221.03293      	220.97443      	220.9763       	221.0054       	220.96558      	221.01138      	221.00653      	220.99692      	221.0178       	221.00723      	220.99814      	220.99953      	220.96437      	220.98134      	220.97269      	220.99202      	220.97142      	220.97385      	220.93948      	220.97794      	220.9846       	220.98268      	220.98543      	221.00833      	220.97882      	220.99135      	221.00034      	221.00742      	221.02866      	221.00139      	221.01898      	221.05037      	221.02322      	221.04265      	221.01671      	221.03467      	221.04695      	221.02213      	221.03934      	221.02792      	221.05356      	
221.00433      	221.05533      	221.07095      	221.03531      	221.06993      	221.0718       	221.0838       	221.05946      	221.08636      	221.06569      	221.00882      	221.04391      	221.03079      	221.01866      	221.00601      	221.02028      	221.0473       	221.03143      	221.02415      	221.00143      	221.02597      	221.0348       	221.00815      	221.04695      	221.00961      	221.04123      	221.07498      	221.02235      	221.04247      	220.9932       	221.04216      	221.01324      	221.01608      	221.00082      	221.02296      	221.0196       	221.03635      	221.07681      	221.08519      	221.12053      	221.07516      	221.06798      	221.04483      	221.0139       	221.01392      	221.05226      	221.00993      	221.05786      	221.02896      	221.0773       	221.08559      	221.03778      	221.04323      	221.04628      	221.01326      	221.01979      	221.04964      	221.07889      	221.06908      	221.05476      	221.08217      	221.08293      	221.05501      	221.0619       	221.0172       	221.04118      	221.02994      	221.01378      	221.04788      	221.0254       	221.01952      	221.0281       	221.03908      	221.02344      	221.0306       	221.06982      	221.091        	221.02522      	221.01392      	221.01459      	221.04103      	221.02083      	221.0248       	221.02496      	221.04637      	221.03436      	221.05972      	221.03255      	221.06421      	221.05508      	221.03036      	221.01302      	221.02818      	221.0169       	221.03038      	221.01793      	221.03606      	221.04305      	221.0184       	221.02043      	
221.18175      	221.20851      	221.14227      	221.15016      	221.17831      	221.15501      	221.15724      	221.14337      	221.15599      	221.16779      	221.16707      	221.13773      	221.1441       	221.15549      	221.15004      	221.16127      	221.11115      	221.14413      	221.14299      	221.14346      	221.14143      	221.13138      	221.1623       	221.13914      	221.15794      	221.17386      	221.17178      	221.18683      	221.17993      	221.16145      	221.13222      	221.13763      	221.13145      	221.13968      	221.1503       	221.17007      	221.16748      	221.17026      	221.14435      	221.14488      	221.16861      	221.13075      	221.12808      	221.1367       	221.09018      	221.05309      	221.10979      	221.07956      	221.11513      	221.12035      	221.10753      	221.10384      	221.08553      	221.09811      	221.08409      	221.12932      	221.08968      	221.11069      	221.10562      	221.1247       	221.09497      	221.1146       	221.10666      	221.10945      	221.10558      	221.13824      	221.09972      	221.08855      	221.08707      	221.1063       	221.10667      	221.11522      	221.11067      	221.10464      	221.1243       	221.16602      	221.14603      	221.09554      	221.11041      	221.10841      	221.08311      	221.09467      	221.12274      	221.12703      	221.08078      	221.10133      	221.10272      	221.09108      	221.07756      	221.09888      	221.10384      	221.12086      	221.12062      	221.1284       	221.11514      	221.09215      	221.09361      	221.11214      	221.11281      	221.10106      	
221.20547      	221.18626      	221.20988      	221.23991      	221.21559      	221.19894      	221.22804      	221.24132      	221.21642      	221.23682      	221.21404      	221.22722      	221.22803      	221.2223       	221.22562      	221.18211      	221.17006      	221.22531      	221.19815      	221.20226      	221.22702      	221.2443       	221.20345      	221.18411      	221.28232      	221.21484      	221.24026      	221.2035       	221.21445      	221.20784      	221.20717      	221.21332      	221.2055       	221.19295      	221.2009       	221.22641      	221.21826      	221.2225       	221.19846      	221.21574      	221.19179      	221.23387      	221.20567      	221.20892      	221.22957      	221.21216      	221.19426      	221.20076      	221.18341      	221.21257      	221.17026      	221.20847      	221.20091      	221.18674      	221.19806      	221.20091      	221.20016      	221.18939      	221.18607      	221.18166      	221.1875       	221.18219      	221.19049      	221.17816      	221.18626      	221.20172      	221.19696      	221.19272      	221.21965      	221.1989       	221.21632      	221.18929      	221.22395      	221.19711      	221.18031      	221.20042      	221.19661      	221.20639      	221.18474      	221.19637      	221.2078       	221.18735      	221.15729      	221.16273      	221.13548      	221.1369       	221.15869      	221.15025      	221.10822      	221.12737      	221.10303      	221.10768      	221.15659      	221.15657      	221.11395      	221.11565      	221.12361      	221.13968      	221.11948      	221.12996      	
221.35744      	221.37013      	221.37567      	221.3638       	221.36464      	221.35817      	221.38734      	221.3648       	221.38672      	221.37997      	221.35712      	221.34552      	221.34613      	221.34901      	221.34854      	221.3352       	221.36832      	221.34033      	221.36668      	221.35931      	221.36563      	221.34882      	221.36835      	221.35382      	221.37782      	221.3367       	221.38306      	221.39558      	221.36559      	221.33424      	221.38045      	221.38846      	221.3869       	221.35284      	221.38696      	221.36977      	221.36899      	221.3787       	221.37128      	221.37308      	221.34853      	221.38321      	221.36311      	221.3402       	221.36932      	221.33644      	221.36107      	221.36566      	221.36792      	221.37436      	221.31927      	221.34709      	221.36676      	221.36484      	221.34406      	221.37308      	221.34985      	221.36115      	221.38557      	221.39827      	221.38522      	221.39935      	221.35123      	221.37125      	221.40216      	221.37297      	221.39297      	221.37714      	221.33502      	221.38905      	221.35701      	221.34824      	221.3377       	221.37915      	221.4265       	221.36816      	221.36157      	221.36101      	221.35495      	221.32285      	221.35863      	221.36028      	221.35645      	221.31644      	221.36525      	221.3599       	221.35793      	221.36667      	221.39136      	221.36002      	221.35985      	221.34991      	221.37592      	221.34456      	221.33499      	221.35979      	221.33629      	221.35399      	221.3502       	221.37091      	
221.54584      	221.54802      	221.57162      	221.54958      	221.57115      	221.56168      	221.58136      	221.56017      	221.53537      	221.51686      	221.50087      	221.52267      	221.51935      	221.53517      	221.55911      	221.54213      	221.53671      	221.52255      	221.48306      	221.53433      	221.4873       	221.4973       	221.55276      	221.48734      	221.51682      	221.51857      	221.52887      	221.54445      	221.5276       	221.49568      	221.50806      	221.51613      	221.5106       	221.52602      	221.52347      	221.5037       	221.51955      	221.559        	221.53508      	221.54605      	221.50554      	221.47697      	221.51413      	221.49599      	221.53226      	221.53621      	221.51173      	221.50404      	221.542        	221.52586      	221.54094      	221.54321      	221.50876      	221.55296      	221.51625      	221.56601      	221.51903      	221.54207      	221.54276      	221.54831      	221.54095      	221.5382       	221.5014       	221.53903      	221.51889      	221.51671      	221.53876      	221.55255      	221.53421      	221.5477       	221.5382       	221.50629      	221.53127      	221.56418      	221.54013      	221.5574       	221.53856      	221.50516      	221.51288      	221.56088      	221.54001      	221.55405      	221.54109      	221.5082       	221.52602      	221.53722      	221.50195      	221.51413      	221.50642      	221.51239      	221.48299      	221.48361      	221.47911      	221.4816       	221.47516      	221.49261      	221.48538      	221.47447      	221.51324      	221.5114       	
221.58612      	221.54388      	221.54836      	221.59764      	221.58817      	221.60938      	221.6023       	221.56462      	221.56023      	221.55643      	221.59808      	221.58743      	221.56763      	221.58276      	221.6072       	221.57565      	221.5871       	221.58011      	221.56874      	221.58025      	221.57103      	221.59116      	221.56851      	221.6057       	221.60759      	221.59686      	221.59901      	221.58542      	221.56853      	221.57983      	221.62923      	221.61028      	221.63083      	221.62245      	221.63168      	221.62527      	221.62778      	221.61932      	221.58269      	221.62119      	221.62347      	221.61317      	221.64923      	221.60905      	221.59006      	221.6424       	221.6363       	221.60739      	221.62697      	221.6511       	221.64359      	221.60939      	221.60707      	221.58774      	221.60268      	221.60889      	221.59665      	221.60399      	221.5757       	221.5608       	221.56073      	221.55893      	221.55331      	221.57843      	221.55856      	221.58203      	221.55077      	221.57126      	221.58702      	221.56697      	221.61539      	221.5617       	221.53041      	221.5927       	221.57921      	221.58214      	221.56372      	221.51817      	221.5574       	221.56956      	221.58733      	221.55934      	221.59508      	221.55388      	221.54156      	221.55475      	221.53842      	221.56073      	221.56476      	221.59256      	221.54503      	221.57089      	221.5586       	221.56473      	221.583        	221.5659       	221.57608      	221.57362      	221.57993      	221.60165      	
221.5618       	221.58633      	221.56526      	221.57211      	221.59158      	221.5445       	221.54323      	221.53958      	221.52515      	221.53842      	221.52206      	221.54527      	221.53214      	221.54054      	221.51508      	221.52423      	221.57208      	221.5342       	221.58513      	221.56479      	221.60312      	221.59442      	221.58876      	221.54451      	221.57835      	221.55844      	221.54901      	221.56609      	221.55629      	221.54263      	221.5612       	221.58894      	221.55396      	221.57602      	221.5818       	221.55528      	221.53958      	221.5431       	221.57054      	221.56644      	221.57219      	221.55882      	221.534        	221.5061       	221.54062      	221.59634      	221.57909      	221.57031      	221.53204      	221.53998      	221.52269      	221.54614      	221.52078      	221.53429      	221.52116      	221.5122       	221.52074      	221.49696      	221.52402      	221.58066      	221.54477      	221.54263      	221.51491      	221.53348      	221.49725      	221.44032      	221.46405      	221.49974      	221.49854      	221.50377      	221.50764      	221.53717      	221.58592      	221.55057      	221.54346      	221.52744      	221.50674      	221.53375      	221.55582      	221.55829      	221.55005      	221.5838       	221.58292      	221.567        	221.56679      	221.57199      	221.5712       	221.57251      	221.56372      	221.57892      	221.57275      	221.55556      	221.53249      	221.58963      	221.54573      	221.54865      	221.56622      	221.5939       	221.57877      	221.56982      	
221.63461      	221.6527       	221.5755       	221.59714      	221.62782      	221.55551      	221.54123      	221.59068      	221.52924      	221.57918      	221.5536       	221.55719      	221.5987       	221.55981      	221.55016      	221.57431      	221.5634       	221.5444       	221.55353      	221.53183      	221.56696      	221.61302      	221.57034      	221.55014      	221.54958      	221.545        	221.54083      	221.53304      	221.50111      	221.5171       	221.53035      	221.51353      	221.52847      	221.55524      	221.52362      	221.53317      	221.55592      	221.50662      	221.53575      	221.51416      	221.54189      	221.54118      	221.51797      	221.52489      	221.53256      	221.5362       	221.53436      	221.52664      	221.51392      	221.51155      	221.48772      	221.58325      	221.62103      	221.59499      	221.65308      	221.63176      	221.57321      	221.52133      	221.56053      	221.57806      	221.51273      	221.5445       	221.53995      	221.54486      	221.53964      	221.57802      	221.56252      	221.55956      	221.5598       	221.56647      	221.54495      	221.55272      	221.53728      	221.58353      	221.56454      	221.53534      	221.57362      	221.57497      	221.55145      	221.55946      	221.57683      	221.53021      	221.54759      	221.56085      	221.60231      	221.54604      	221.52455      	221.54875      	221.57147      	221.55446      	221.55914      	221.57074      	221.56728      	221.52512      	221.54141      	221.56958      	221.54192      	221.53493      	221.5581       	221.54892      	
221.71417      	221.73242      	221.72835      	221.67555      	221.6987       	221.66072      	221.67377      	221.65443      	221.64459      	221.63177      	221.64998      	221.65858      	221.67679      	221.66843      	221.63654      	221.64487      	221.62897      	221.6459       	221.62755      	221.64168      	221.64984      	221.66554      	221.66791      	221.6528       	221.63759      	221.6173       	221.61403      	221.63387      	221.63792      	221.65982      	221.63551      	221.6163       	221.65463      	221.67773      	221.66847      	221.62524      	221.63744      	221.66107      	221.62965      	221.63403      	221.64224      	221.64673      	221.6088       	221.63058      	221.69797      	221.64452      	221.60663      	221.59328      	221.59457      	221.61034      	221.56578      	221.59598      	221.63264      	221.59074      	221.57716      	221.58139      	221.59236      	221.63525      	221.58609      	221.579        	221.59694      	221.61647      	221.58446      	221.6182       	221.59311      	221.62434      	221.60944      	221.6027       	221.59508      	221.58344      	221.62192      	221.61227      	221.60944      	221.58864      	221.58719      	221.61354      	221.61507      	221.6129       	221.61482      	221.59268      	221.58344      	221.59787      	221.58708      	221.61273      	221.5781       	221.58524      	221.6828       	221.62955      	221.63466      	221.6001       	221.61205      	221.63023      	221.59138      	221.62914      	221.61423      	221.61737      	221.60947      	221.62932      	221.61122      	221.6315       	
221.5705       	221.61386      	221.61778      	221.60329      	221.5635       	221.59662      	221.58984      	221.57137      	221.57635      	221.559        	221.57274      	221.56839      	221.55113      	221.5836       	221.53676      	221.56282      	221.56871      	221.5745       	221.55241      	221.59026      	221.5564       	221.55789      	221.5613       	221.5632       	221.54712      	221.54973      	221.55713      	221.54156      	221.55501      	221.55011      	221.56827      	221.55476      	221.5779       	221.60081      	221.60849      	221.55925      	221.58456      	221.5986       	221.58531      	221.61638      	221.6145       	221.56741      	221.61908      	221.5745       	221.57536      	221.59131      	221.58739      	221.5672       	221.59714      	221.59581      	221.59418      	221.57237      	221.56227      	221.5453       	221.5844       	221.57513      	221.61472      	221.6091       	221.6113       	221.61798      	221.62173      	221.57285      	221.6107       	221.60883      	221.59848      	221.66235      	221.5944       	221.61781      	221.58603      	221.61586      	221.60172      	221.6024       	221.59586      	221.62257      	221.63278      	221.62454      	221.62791      	221.64426      	221.60358      	221.59479      	221.60123      	221.61798      	221.6087       	221.60593      	221.60832      	221.62141      	221.61253      	221.61383      	221.61874      	221.58981      	221.5774       	221.5969       	221.61644      	221.58759      	221.60236      	221.58827      	221.59814      	221.60208      	221.60367      	221.63795      	
221.60602      	221.66266      	221.61842      	221.61157      	221.61118      	221.63298      	221.59494      	221.61606      	221.58812      	221.61311      	221.59683      	221.55846      	221.57098      	221.5625       	221.53807      	221.59679      	221.5891       	221.58347      	221.57918      	221.58871      	221.56917      	221.58371      	221.62784      	221.61108      	221.58339      	221.58063      	221.55922      	221.59354      	221.60155      	221.56888      	221.57745      	221.57193      	221.58485      	221.59743      	221.57446      	221.59787      	221.60971      	221.5925       	221.60335      	221.59206      	221.60622      	221.60782      	221.61171      	221.5973       	221.60455      	221.59825      	221.65639      	221.65227      	221.60782      	221.63092      	221.61728      	221.62444      	221.58824      	221.60414      	221.61899      	221.63675      	221.59622      	221.61574      	221.63657      	221.65652      	221.62207      	221.64073      	221.60773      	221.60555      	221.62157      	221.61833      	221.60304      	221.61005      	221.59978      	221.62604      	221.58359      	221.59015      	221.6002       	221.58788      	221.60614      	221.61565      	221.58342      	221.58731      	221.5988       	221.5685       	221.60654      	221.58627      	221.59576      	221.57317      	221.5598       	221.58186      	221.56267      	221.61777      	221.60696      	221.58871      	221.58224      	221.59894      	221.60129      	221.62468      	221.60344      	221.62111      	221.58641      	221.60735      	221.6228       	221.61115      	
221.57603      	221.5768       	221.57407      	221.57721      	221.57538      	221.5642       	221.55643      	221.59831      	221.55869      	221.55716      	221.56723      	221.55219      	221.55185      	221.56253      	221.57106      	221.59079      	221.60562      	221.52475      	221.54721      	221.5389       	221.49106      	221.4597       	221.52336      	221.57689      	221.5079       	221.54843      	221.55463      	221.56886      	221.58615      	221.57268      	221.56464      	221.55472      	221.57631      	221.53766      	221.52173      	221.53386      	221.59798      	221.58575      	221.58023      	221.60194      	221.64569      	221.6188       	221.5996       	221.61984      	221.58693      	221.58133      	221.5939       	221.59157      	221.57681      	221.53917      	221.5725       	221.57         	221.58246      	221.61334      	221.63976      	221.60817      	221.58841      	221.59668      	221.60246      	221.61734      	221.63109      	221.6373       	221.59822      	221.57655      	221.59544      	221.56085      	221.5489       	221.60129      	221.61295      	221.58385      	221.55643      	221.58258      	221.5582       	221.55566      	221.56448      	221.5556       	221.55511      	221.58038      	221.58157      	221.58287      	221.54582      	221.57967      	221.56244      	221.5559       	221.58694      	221.54443      	221.5526       	221.5762       	221.527        	221.54755      	221.57545      	221.53598      	221.58177      	221.5935       	221.57059      	221.58575      	221.5835       	221.57907      	221.59654      	221.59303      	
221.61775      	221.61798      	221.66039      	221.64844      	221.61606      	221.64442      	221.62717      	221.60506      	221.6069       	221.66574      	221.6237       	221.61693      	221.62384      	221.62793      	221.61432      	221.60287      	221.61516      	221.60303      	221.60333      	221.61745      	221.54564      	221.56664      	221.5408       	221.58482      	221.55511      	221.55539      	221.56622      	221.55698      	221.5573       	221.58203      	221.558        	221.55426      	221.58975      	221.59222      	221.58067      	221.56975      	221.57414      	221.57867      	221.57858      	221.64407      	221.61957      	221.609        	221.59789      	221.57805      	221.55275      	221.58226      	221.57251      	221.59709      	221.55634      	221.58217      	221.55328      	221.5571       	221.56015      	221.57307      	221.54434      	221.57643      	221.58542      	221.58932      	221.60252      	221.59105      	221.6046       	221.58604      	221.55504      	221.6167       	221.60179      	221.56705      	221.5564       	221.58423      	221.58278      	221.61458      	221.57715      	221.54991      	221.514        	221.551        	221.56937      	221.55429      	221.55452      	221.54831      	221.56346      	221.56422      	221.58229      	221.59769      	221.56111      	221.55133      	221.5576       	221.53867      	221.54501      	221.52097      	221.54483      	221.54056      	221.5476       	221.54395      	221.54039      	221.53616      	221.53773      	221.51685      	221.55365      	221.52637      	221.51033      	221.54779      	
221.75406      	221.75645      	221.76866      	221.74498      	221.7901       	221.75504      	221.75925      	221.7514       	221.79652      	221.76686      	221.74828      	221.7888       	221.77232      	221.77145      	221.79332      	221.81134      	221.81244      	221.75603      	221.7402       	221.77571      	221.75446      	221.72893      	221.74884      	221.72209      	221.73831      	221.78847      	221.78801      	221.75122      	221.74973      	221.75487      	221.73798      	221.70184      	221.72949      	221.72394      	221.69656      	221.6965       	221.67184      	221.71954      	221.70752      	221.70337      	221.68927      	221.67955      	221.69774      	221.6678       	221.70583      	221.6695       	221.67819      	221.67868      	221.69101      	221.71823      	221.69965      	221.70511      	221.69223      	221.71526      	221.71394      	221.71268      	221.71092      	221.69757      	221.69987      	221.70421      	221.76033      	221.72577      	221.70433      	221.72795      	221.71886      	221.74051      	221.72513      	221.68774      	221.70639      	221.68674      	221.68246      	221.70372      	221.69632      	221.67506      	221.69308      	221.68585      	221.67781      	221.69482      	221.65356      	221.69843      	221.74403      	221.72638      	221.69685      	221.6867       	221.72084      	221.6927       	221.7186       	221.70287      	221.70761      	221.67638      	221.68134      	221.69467      	221.67856      	221.69705      	221.70116      	221.6922       	221.71117      	221.69775      	221.71843      	221.70102      	
221.73373      	221.70358      	221.7233       	221.73346      	221.7181       	221.73965      	221.74623      	221.72162      	221.71786      	221.74252      	221.73734      	221.68149      	221.70457      	221.69768      	221.72063      	221.71028      	221.72629      	221.72615      	221.73119      	221.78969      	221.75107      	221.74017      	221.71223      	221.71371      	221.71779      	221.72194      	221.7182       	221.71141      	221.72418      	221.76405      	221.7554       	221.75157      	221.78151      	221.76622      	221.72527      	221.73334      	221.71751      	221.72374      	221.7505       	221.73944      	221.73863      	221.73456      	221.71298      	221.72092      	221.756        	221.77296      	221.77864      	221.74977      	221.76302      	221.75636      	221.74594      	221.73177      	221.71916      	221.7479       	221.74203      	221.75         	221.73817      	221.71613      	221.75462      	221.73582      	221.74193      	221.7947       	221.77913      	221.76027      	221.76535      	221.74887      	221.733        	221.70734      	221.74805      	221.74608      	221.70036      	221.75021      	221.73845      	221.73468      	221.74095      	221.74167      	221.74306      	221.7506       	221.74066      	221.74144      	221.73476      	221.7193       	221.7975       	221.75775      	221.79271      	221.75478      	221.7317       	221.74294      	221.75063      	221.73346      	221.75438      	221.71736      	221.71681      	221.71011      	221.73326      	221.71524      	221.72736      	221.71925      	221.7348       	221.71524      	
221.78775      	221.80276      	221.8457       	221.83708      	221.84825      	221.8359       	221.82867      	221.82669      	221.82349      	221.82248      	221.86423      	221.80971      	221.8319       	221.81566      	221.87083      	221.86855      	221.8306       	221.84933      	221.85866      	221.83499      	221.84564      	221.82089      	221.8259       	221.83374      	221.81958      	221.83824      	221.80682      	221.7851       	221.8006       	221.8395       	221.82492      	221.84741      	221.843        	221.8466       	221.84409      	221.83879      	221.79541      	221.8383       	221.87059      	221.83685      	221.8229       	221.82593      	221.86383      	221.85707      	221.86465      	221.8606       	221.84798      	221.83897      	221.87207      	221.87909      	221.88086      	221.883        	221.86942      	221.82668      	221.83827      	221.83894      	221.8553       	221.8294       	221.83992      	221.88753      	221.85825      	221.82797      	221.85251      	221.84439      	221.8367       	221.85187      	221.82697      	221.8214       	221.83284      	221.80304      	221.83556      	221.83911      	221.80313      	221.81468      	221.84496      	221.83182      	221.80661      	221.81941      	221.808        	221.81952      	221.8074       	221.81573      	221.82443      	221.82956      	221.82755      	221.81314      	221.81276      	221.85309      	221.8003       	221.81836      	221.8728       	221.85988      	221.84702      	221.81522      	221.8165       	221.82677      	221.83473      	221.84024      	221.83453      	221.84212      	
221.75365      	221.77182      	221.76701      	221.75223      	221.76286      	221.76276      	221.77449      	221.77911      	221.78351      	221.81404      	221.80234      	221.80225      	221.77135      	221.76413      	221.78334      	221.77245      	221.7722       	221.78499      	221.74332      	221.78456      	221.77809      	221.78476      	221.78246      	221.76736      	221.75966      	221.78351      	221.76718      	221.77344      	221.77188      	221.77281      	221.78941      	221.76358      	221.75491      	221.74452      	221.77417      	221.75612      	221.77052      	221.77826      	221.7758       	221.77164      	221.7976       	221.79272      	221.80064      	221.77231      	221.7628       	221.74203      	221.77678      	221.75269      	221.75616      	221.75272      	221.76262      	221.74527      	221.7272       	221.75554      	221.76082      	221.76547      	221.74438      	221.75691      	221.79541      	221.7702       	221.75131      	221.7597       	221.76389      	221.74861      	221.73927      	221.7486       	221.7637       	221.78831      	221.80193      	221.80867      	221.79889      	221.78271      	221.77179      	221.78929      	221.78595      	221.7676       	221.78578      	221.8021       	221.8131       	221.79607      	221.79173      	221.80112      	221.7737       	221.80887      	221.80902      	221.76985      	221.7768       	221.7783       	221.76031      	221.78043      	221.81375      	221.82204      	221.80539      	221.81721      	221.81517      	221.8377       	221.8368       	221.81244      	221.80946      	221.81111      	
221.73866      	221.73912      	221.73665      	221.76105      	221.73381      	221.76239      	221.75163      	221.77989      	221.72736      	221.74982      	221.7735       	221.73949      	221.76088      	221.74918      	221.7562       	221.79913      	221.79137      	221.79196      	221.76523      	221.74197      	221.728        	221.75401      	221.7398       	221.75706      	221.71585      	221.72287      	221.74193      	221.73476      	221.73988      	221.75523      	221.76399      	221.73679      	221.74408      	221.72726      	221.74104      	221.75774      	221.73244      	221.72168      	221.74493      	221.75897      	221.73642      	221.7521       	221.76244      	221.73045      	221.75781      	221.73901      	221.7687       	221.76492      	221.75739      	221.76244      	221.74854      	221.7517       	221.73685      	221.76889      	221.77043      	221.77905      	221.76952      	221.7899       	221.76964      	221.74413      	221.74075      	221.71924      	221.74553      	221.72858      	221.74506      	221.74275      	221.7488       	221.72046      	221.74773      	221.72292      	221.77538      	221.78468      	221.76083      	221.76416      	221.77988      	221.73836      	221.71068      	221.70331      	221.68402      	221.73651      	221.72711      	221.72458      	221.73967      	221.74979      	221.76102      	221.78395      	221.75941      	221.73804      	221.74606      	221.75214      	221.77902      	221.77563      	221.74197      	221.76564      	221.79784      	221.77687      	221.7818       	221.79921      	221.79706      	221.81688      	
221.77058      	221.75575      	221.78102      	221.74945      	221.7313       	221.74539      	221.74445      	221.77821      	221.73026      	221.76382      	221.7408       	221.7133       	221.72527      	221.71385      	221.70403      	221.69138      	221.70091      	221.70778      	221.6952       	221.71606      	221.69852      	221.73964      	221.72887      	221.74786      	221.70694      	221.7735       	221.7766       	221.76637      	221.71037      	221.70784      	221.72209      	221.72218      	221.72874      	221.7497       	221.743        	221.78453      	221.7494       	221.76231      	221.7527       	221.72174      	221.70215      	221.71498      	221.75237      	221.71242      	221.72849      	221.73708      	221.71994      	221.71263      	221.7298       	221.6618       	221.67828      	221.65102      	221.69485      	221.7071       	221.71507      	221.69095      	221.69872      	221.68256      	221.6911       	221.707        	221.6887       	221.69102      	221.72403      	221.71169      	221.70245      	221.71906      	221.69978      	221.70143      	221.72342      	221.67136      	221.66823      	221.69186      	221.74545      	221.70804      	221.70735      	221.70787      	221.7225       	221.69394      	221.69272      	221.7059       	221.72557      	221.70502      	221.72165      	221.69931      	221.70361      	221.72821      	221.78448      	221.72536      	221.70607      	221.69589      	221.68723      	221.77196      	221.74933      	221.74895      	221.76726      	221.73573      	221.74428      	221.72614      	221.74448      	221.72585      	
221.72621      	221.73804      	221.73143      	221.74065      	221.77638      	221.7553       	221.7497       	221.77567      	221.7713       	221.73828      	221.74982      	221.79436      	221.78236      	221.76512      	221.76392      	221.78638      	221.77196      	221.7623       	221.74008      	221.72289      	221.72911      	221.72322      	221.71518      	221.72777      	221.72688      	221.76378      	221.73936      	221.74121      	221.74918      	221.73845      	221.77565      	221.7466       	221.74065      	221.7612       	221.7382       	221.75372      	221.77313      	221.76292      	221.76112      	221.75636      	221.75732      	221.75404      	221.761        	221.75201      	221.73904      	221.74997      	221.77841      	221.81682      	221.80817      	221.76588      	221.78288      	221.7727       	221.73546      	221.77457      	221.80544      	221.77156      	221.77652      	221.78572      	221.77026      	221.80423      	221.79202      	221.80861      	221.7851       	221.7525       	221.79143      	221.7705       	221.75986      	221.77362      	221.76123      	221.70853      	221.71243      	221.74544      	221.7928       	221.78505      	221.76744      	221.76544      	221.76987      	221.75667      	221.7377       	221.76367      	221.79395      	221.71751      	221.69295      	221.69899      	221.74664      	221.73488      	221.74373      	221.72568      	221.72552      	221.72527      	221.71144      	221.76285      	221.70766      	221.71588      	221.74335      	221.74245      	221.73431      	221.74698      	221.77074      	221.74193      	
221.8039       	221.81314      	221.80551      	221.78938      	221.81415      	221.79677      	221.8059       	221.7958       	221.79991      	221.81631      	221.80875      	221.82513      	221.77077      	221.78532      	221.81554      	221.77058      	221.78516      	221.77322      	221.80255      	221.78214      	221.78061      	221.7899       	221.79837      	221.81168      	221.79607      	221.78958      	221.77327      	221.81142      	221.81325      	221.83102      	221.83847      	221.81036      	221.77376      	221.74641      	221.76912      	221.76059      	221.77464      	221.78133      	221.76047      	221.79799      	221.79793      	221.76953      	221.79768      	221.78293      	221.76894      	221.7986       	221.79216      	221.76349      	221.74927      	221.77449      	221.72997      	221.7748       	221.74887      	221.75327      	221.79385      	221.76276      	221.77748      	221.8091       	221.8012       	221.7464       	221.77342      	221.79037      	221.76212      	221.78204      	221.76033      	221.74606      	221.78453      	221.76186      	221.79256      	221.81651      	221.77054      	221.7898       	221.79291      	221.75116      	221.75797      	221.75938      	221.75531      	221.73415      	221.76376      	221.74442      	221.77693      	221.73863      	221.74307      	221.78024      	221.75792      	221.75345      	221.78058      	221.73253      	221.73438      	221.73695      	221.75497      	221.76154      	221.75006      	221.76643      	221.76491      	221.74069      	221.74358      	221.76833      	221.75513      	221.76605      	
221.8638       	221.89111      	221.87521      	221.86946      	221.86319      	221.87051      	221.86761      	221.8657       	221.85081      	221.83727      	221.86122      	221.85423      	221.85622      	221.88402      	221.85411      	221.83849      	221.82481      	221.84435      	221.86887      	221.86961      	221.83751      	221.84837      	221.86998      	221.84938      	221.84764      	221.82083      	221.84601      	221.83649      	221.84476      	221.83203      	221.81903      	221.83385      	221.84671      	221.82837      	221.8801       	221.8537       	221.84105      	221.84433      	221.84702      	221.83195      	221.83234      	221.82425      	221.83038      	221.85036      	221.86783      	221.8159       	221.78896      	221.76793      	221.83719      	221.81454      	221.8201       	221.80919      	221.81253      	221.8163       	221.8162       	221.88779      	221.86758      	221.86331      	221.87524      	221.8598       	221.84206      	221.78687      	221.82506      	221.82506      	221.83995      	221.82315      	221.80435      	221.83592      	221.85759      	221.82213      	221.85126      	221.85861      	221.88055      	221.87093      	221.86841      	221.8799       	221.85767      	221.87994      	221.85774      	221.84195      	221.84042      	221.8362       	221.85196      	221.84709      	221.84328      	221.84227      	221.89691      	221.83005      	221.82143      	221.83221      	221.82408      	221.85806      	221.82664      	221.84177      	221.8243       	221.82433      	221.82869      	221.83371      	221.84308      	221.82346      	
221.84448      	221.81747      	221.80585      	221.84811      	221.8078       	221.80714      	221.80588      	221.80672      	221.78468      	221.81825      	221.819        	221.8392       	221.8208       	221.86646      	221.81358      	221.82205      	221.79987      	221.8042       	221.80217      	221.82031      	221.8259       	221.79318      	221.82668      	221.8071       	221.81361      	221.81476      	221.82259      	221.83029      	221.81378      	221.82925      	221.81107      	221.80159      	221.81529      	221.81746      	221.79494      	221.80008      	221.83446      	221.82153      	221.82767      	221.83827      	221.8351       	221.81732      	221.84366      	221.77678      	221.8217       	221.78896      	221.81642      	221.82787      	221.83719      	221.84148      	221.85245      	221.86426      	221.83861      	221.80124      	221.83878      	221.81584      	221.81778      	221.81593      	221.8336       	221.82787      	221.82333      	221.82635      	221.82779      	221.8432       	221.87514      	221.8364       	221.8374       	221.8279       	221.81673      	221.8246       	221.78508      	221.85791      	221.83725      	221.82909      	221.84772      	221.83209      	221.82443      	221.8554       	221.8306       	221.83224      	221.83315      	221.83363      	221.81264      	221.84375      	221.82016      	221.82962      	221.80673      	221.84138      	221.85802      	221.8281       	221.82762      	221.84384      	221.81378      	221.76178      	221.79552      	221.80428      	221.7851       	221.79973      	221.81834      	221.80338      	
221.80588      	221.79712      	221.79315      	221.78435      	221.76573      	221.76912      	221.7713       	221.77321      	221.78044      	221.7783       	221.77818      	221.77316      	221.79335      	221.78226      	221.76146      	221.7349       	221.76349      	221.79443      	221.802        	221.82762      	221.79091      	221.78973      	221.75284      	221.78268      	221.76978      	221.79207      	221.78491      	221.77798      	221.79305      	221.8091       	221.76854      	221.82397      	221.79538      	221.78653      	221.76659      	221.77637      	221.79866      	221.7589       	221.77164      	221.79308      	221.80608      	221.7944       	221.78142      	221.80788      	221.77525      	221.77353      	221.77792      	221.76799      	221.80807      	221.79294      	221.81488      	221.77684      	221.77716      	221.76102      	221.80727      	221.76682      	221.77377      	221.81541      	221.75629      	221.73611      	221.77509      	221.76466      	221.76662      	221.7863       	221.80972      	221.81017      	221.79611      	221.77866      	221.76619      	221.7925       	221.78288      	221.79689      	221.79384      	221.81648      	221.78636      	221.81573      	221.78561      	221.76334      	221.78825      	221.79335      	221.79349      	221.79755      	221.80255      	221.85301      	221.82161      	221.8067       	221.78621      	221.81322      	221.80226      	221.77313      	221.76791      	221.81355      	221.77434      	221.78944      	221.78459      	221.80344      	221.83374      	221.82278      	221.78476      	221.8169       	
222.08444      	222.07828      	222.02725      	222.01608      	221.98972      	221.98997      	222.00749      	221.9922       	221.98398      	222.02768      	221.97209      	221.9787       	221.9809       	222.00873      	222.00523      	222.00214      	221.98294      	221.98103      	221.98288      	221.98184      	221.97906      	221.94847      	221.95859      	221.95074      	221.95639      	221.94212      	221.9802       	221.99576      	221.97092      	221.98364      	221.95166      	221.93262      	221.96483      	221.95213      	221.97388      	222.00822      	221.99632      	221.98682      	222.00352      	221.97015      	221.99332      	221.94873      	221.93419      	221.95639      	221.9847       	221.94443      	221.92645      	221.90244      	221.9249       	221.93869      	221.95166      	221.92543      	221.89749      	221.92422      	221.95033      	221.9631       	221.98158      	221.94344      	221.9297       	221.95375      	221.95963      	221.95384      	221.96068      	221.92905      	221.99185      	221.9991       	221.97458      	221.97073      	221.94002      	221.97313      	221.94672      	221.94557      	221.93285      	221.93625      	221.93129      	221.90526      	221.89691      	221.90355      	221.93108      	221.92294      	221.93156      	221.89899      	221.88329      	221.92955      	221.87126      	221.91534      	221.91179      	221.88477      	221.93092      	221.96957      	221.96117      	221.93285      	221.96175      	221.95187      	221.91739      	221.92088      	221.93585      	221.92888      	221.91945      	221.9332       	
222.14314      	222.12703      	222.1539       	222.16951      	222.17693      	222.12827      	222.16278      	222.15314      	222.16336      	222.1543       	222.12196      	222.14362      	222.15189      	222.14957      	222.15852      	222.14963      	222.1487       	222.15755      	222.13295      	222.13843      	222.13112      	222.12445      	222.12093      	222.12173      	222.12494      	222.16252      	222.16139      	222.14777      	222.14952      	222.14413      	222.15787      	222.1619       	222.16434      	222.14226      	222.20053      	222.17581      	222.17833      	222.17548      	222.17494      	222.15726      	222.19621      	222.1564       	222.15524      	222.18663      	222.17767      	222.1655       	222.1843       	222.21237      	222.13564      	222.17125      	222.17123      	222.15454      	222.16136      	222.13875      	222.11848      	222.13957      	222.1188       	222.1355       	222.1099       	222.11995      	222.12534      	222.14992      	222.10866      	222.1041       	222.1251       	222.14334      	222.11398      	222.1267       	222.11342      	222.1015       	222.10522      	222.08682      	222.07184      	222.10391      	222.08295      	222.10292      	222.08524      	222.11392      	222.0964       	222.11418      	222.10263      	222.11623      	222.11952      	222.12767      	222.14212      	222.17136      	222.16455      	222.20508      	222.10172      	222.09195      	222.12573      	222.14795      	222.135        	222.13226      	222.1288       	222.16         	222.14186      	222.11229      	222.08788      	222.1382       	
222.10321      	222.15897      	222.14558      	222.16553      	222.1399       	222.14224      	222.1635       	222.16959      	222.15802      	222.17982      	222.16742      	222.17084      	222.12737      	222.15837      	222.13428      	222.13324      	222.12387      	222.13344      	222.13963      	222.14479      	222.16444      	222.15115      	222.18582      	222.15932      	222.17093      	222.16359      	222.15355      	222.17651      	222.18059      	222.15332      	222.17587      	222.15454      	222.16412      	222.16895      	222.141        	222.15903      	222.19899      	222.16837      	222.22708      	222.16595      	222.14288      	222.13023      	222.1478       	222.13077      	222.18904      	222.18709      	222.177        	222.16306      	222.1696       	222.149        	222.14963      	222.18036      	222.19482      	222.21527      	222.22266      	222.21167      	222.2619       	222.22852      	222.24208      	222.2169       	222.17825      	222.17567      	222.18352      	222.14908      	222.14185      	222.19273      	222.16414      	222.16376      	222.17928      	222.18434      	222.1849       	222.19743      	222.1631       	222.21161      	222.20616      	222.21153      	222.21683      	222.21153      	222.18848      	222.16364      	222.16904      	222.17969      	222.16333      	222.15439      	222.13864      	222.117        	222.16518      	222.19229      	222.18861      	222.17218      	222.14928      	222.18105      	222.13351      	222.17749      	222.164        	222.17406      	222.1876       	222.18765      	222.18718      	222.19518      	
222.04347      	222.06023      	222.03339      	222.04218      	222.05441      	222.07126      	222.06168      	222.06192      	222.06386      	222.0787       	222.11467      	222.0681       	222.13145      	222.08214      	222.07489      	222.05475      	222.09651      	222.10382      	222.09103      	222.09026      	222.10817      	222.06435      	222.0672       	222.05978      	222.09544      	222.0796       	222.07974      	222.09926      	222.08473      	222.04465      	222.08177      	222.0866       	222.08836      	222.09549      	222.09042      	222.1173       	222.09239      	222.12314      	222.12859      	222.10802      	222.10133      	222.11783      	222.09238      	222.10252      	222.1355       	222.14078      	222.13405      	222.08151      	222.10745      	222.09454      	222.0827       	222.09923      	222.10303      	222.08823      	222.10526      	222.11375      	222.08675      	222.10255      	222.08879      	222.09743      	222.13927      	222.11325      	222.08783      	222.07681      	222.06168      	222.11711      	222.10065      	222.10826      	222.1049       	222.07571      	222.09311      	222.09354      	222.0823       	222.0805       	222.07338      	222.08287      	222.10399      	222.13153      	222.11754      	222.08836      	222.11003      	222.11507      	222.11868      	222.12767      	222.10124      	222.04308      	222.05722      	222.09787      	222.11346      	222.1115       	222.09186      	222.06578      	222.06717      	222.08038      	222.07181      	222.05396      	222.07094      	222.06735      	222.08066      	222.05939      	
222.1473       	222.12857      	222.13132      	222.14291      	222.1129       	222.1279       	222.09901      	222.14157      	222.14984      	222.13742      	222.14474      	222.12042      	222.14743      	222.09929      	222.12738      	222.13242      	222.12978      	222.12532      	222.12923      	222.15822      	222.16844      	222.1345       	222.16286      	222.14949      	222.1181       	222.137        	222.11754      	222.11751      	222.13846      	222.12852      	222.12074      	222.10406      	222.12221      	222.12012      	222.1256       	222.12035      	222.11974      	222.13336      	222.10878      	222.14543      	222.12572      	222.11917      	222.11758      	222.10847      	222.11638      	222.15372      	222.13402      	222.11005      	222.07562      	222.09749      	222.09427      	222.08635      	222.0908       	222.09396      	222.12448      	222.10033      	222.10939      	222.10341      	222.08374      	222.08401      	222.0912       	222.09496      	222.07477      	222.08029      	222.06186      	222.0347       	222.05128      	222.0453       	222.06468      	222.03825      	222.0309       	222.0464       	222.06819      	222.04482      	222.03094      	222.03815      	222.03946      	222.03368      	222.0305       	222.01056      	222.01706      	222.02597      	221.99445      	222.00043      	222.00383      	221.96487      	221.99504      	222.00218      	221.98647      	221.99861      	222.00621      	222.00578      	221.99518      	222.03024      	221.9994       	222.00014      	222.00578      	222.01866      	222.0331       	222.02165      	
222.2956       	222.30348      	222.3063       	222.34332      	222.30418      	222.31863      	222.37865      	222.35272      	222.3486       	222.35382      	222.3483       	222.32582      	222.3086       	222.27008      	222.2879       	222.27753      	222.30688      	222.29355      	222.25844      	222.28621      	222.31223      	222.28773      	222.28293      	222.257        	222.27162      	222.28156      	222.27757      	222.28386      	222.277        	222.2779       	222.25601      	222.29698      	222.29332      	222.2431       	222.2617       	222.28046      	222.27644      	222.2683       	222.22191      	222.30246      	222.2474       	222.2324       	222.26207      	222.24533      	222.26694      	222.28738      	222.25838      	222.23453      	222.24594      	222.24112      	222.27025      	222.26468      	222.25108      	222.2507       	222.25569      	222.24408      	222.23817      	222.25197      	222.26083      	222.22537      	222.24323      	222.25946      	222.24445      	222.2612       	222.25645      	222.23874      	222.24771      	222.25333      	222.23349      	222.25755      	222.21645      	222.22737      	222.24493      	222.24428      	222.23624      	222.19987      	222.20149      	222.19598      	222.23927      	222.21371      	222.22581      	222.21436      	222.18944      	222.19762      	222.1974       	222.21599      	222.20444      	222.21263      	222.213        	222.22328      	222.19986      	222.18707      	222.25868      	222.20215      	222.20288      	222.21901      	222.22003      	222.225        	222.22037      	222.2299       	
222.44354      	222.47575      	222.46608      	222.45354      	222.44026      	222.46338      	222.46182      	222.43979      	222.46492      	222.4855       	222.49754      	222.49846      	222.49777      	222.51604      	222.52577      	222.53033      	222.51805      	222.49983      	222.51343      	222.50636      	222.53185      	222.50677      	222.51463      	222.5102       	222.49396      	222.49078      	222.47655      	222.48769      	222.54198      	222.54507      	222.48163      	222.50624      	222.45523      	222.47751      	222.50023      	222.49864      	222.48126      	222.49167      	222.521        	222.52707      	222.45003      	222.47289      	222.49617      	222.45212      	222.44507      	222.47314      	222.47777      	222.48569      	222.44699      	222.46834      	222.43222      	222.4081       	222.42758      	222.44626      	222.43213      	222.42735      	222.43204      	222.43468      	222.43652      	222.43953      	222.43149      	222.45091      	222.46202      	222.39827      	222.43532      	222.42686      	222.461        	222.444        	222.42838      	222.4503       	222.44026      	222.43405      	222.44472      	222.44579      	222.37782      	222.39891      	222.38849      	222.35797      	222.38107      	222.37198      	222.37848      	222.38564      	222.38191      	222.39105      	222.38753      	222.36305      	222.40842      	222.40817      	222.40799      	222.40445      	222.41507      	222.37404      	222.39882      	222.40082      	222.43307      	222.3998       	222.42245      	222.4387       	222.45367      	222.46242      	
222.65868      	222.63689      	222.64194      	222.62344      	222.6669       	222.6285       	222.6607       	222.64513      	222.60432      	222.59622      	222.60687      	222.60791      	222.62564      	222.62361      	222.61638      	222.64752      	222.58786      	222.58334      	222.61314      	222.59653      	222.59595      	222.586        	222.58603      	222.58827      	222.58612      	222.59366      	222.5572       	222.5897       	222.60954      	222.59756      	222.6116       	222.5682       	222.5839       	222.57904      	222.566        	222.57936      	222.56502      	222.57887      	222.57347      	222.54973      	222.59431      	222.55574      	222.5617       	222.58224      	222.55771      	222.55072      	222.59465      	222.58942      	222.58774      	222.59213      	222.58089      	222.59065      	222.57294      	222.55447      	222.53654      	222.57121      	222.56967      	222.56413      	222.58041      	222.53134      	222.54599      	222.54419      	222.55283      	222.5484       	222.56435      	222.5503       	222.54254      	222.50568      	222.52821      	222.54018      	222.5529       	222.51202      	222.53435      	222.516        	222.51573      	222.53732      	222.55714      	222.54729      	222.54642      	222.51585      	222.57079      	222.54056      	222.48967      	222.53677      	222.54185      	222.50327      	222.53433      	222.51747      	222.5764       	222.54015      	222.53621      	222.54413      	222.53867      	222.5285       	222.5331       	222.53104      	222.52225      	222.50438      	222.51212      	222.49113      	
222.69235      	222.74414      	222.74237      	222.70673      	222.699        	222.7338       	222.73845      	222.75467      	222.76628      	222.76678      	222.7787       	222.75089      	222.76984      	222.70303      	222.72983      	222.72357      	222.71558      	222.69955      	222.68121      	222.68945      	222.68283      	222.69533      	222.68042      	222.68675      	222.71231      	222.68808      	222.68073      	222.66301      	222.69257      	222.68652      	222.70612      	222.6979       	222.73264      	222.729        	222.71678      	222.70964      	222.71526      	222.70142      	222.7137       	222.73416      	222.70583      	222.72878      	222.70685      	222.71947      	222.69379      	222.72136      	222.6965       	222.6651       	222.67978      	222.68776      	222.68797      	222.68927      	222.68164      	222.70013      	222.6861       	222.6896       	222.70969      	222.69035      	222.71437      	222.7276       	222.72752      	222.73128      	222.71149      	222.66805      	222.70703      	222.7447       	222.68188      	222.69391      	222.6962       	222.69325      	222.73178      	222.72992      	222.69936      	222.71747      	222.71207      	222.73163      	222.74065      	222.7523       	222.7496       	222.7639       	222.74307      	222.73419      	222.72975      	222.75658      	222.81528      	222.77303      	222.7719       	222.76202      	222.75352      	222.72687      	222.7324       	222.70743      	222.71072      	222.72108      	222.70175      	222.72818      	222.72653      	222.70253      	222.69144      	222.72842      	
222.82684      	222.82097      	222.82884      	222.81104      	222.8095       	222.82779      	222.8223       	222.78876      	222.82535      	222.78403      	222.8202       	222.82184      	222.8098       	222.78401      	222.78387      	222.81355      	222.77748      	222.7906       	222.81769      	222.79662      	222.78873      	222.78778      	222.79515      	222.81073      	222.80583      	222.77753      	222.81557      	222.7999       	222.79002      	222.80594      	222.80194      	222.81212      	222.7661       	222.81569      	222.8027       	222.82716      	222.81891      	222.80939      	222.80711      	222.80312      	222.78268      	222.80518      	222.79684      	222.80064      	222.77515      	222.8378       	222.8132       	222.80472      	222.80072      	222.80434      	222.817        	222.83466      	222.78581      	222.7989       	222.79736      	222.79063      	222.80093      	222.8307       	222.81299      	222.80568      	222.77208      	222.77255      	222.75746      	222.7985       	222.78114      	222.75034      	222.75966      	222.75853      	222.75917      	222.74797      	222.78229      	222.80328      	222.79378      	222.79294      	222.77318      	222.77385      	222.77197      	222.78201      	222.77184      	222.75813      	222.76974      	222.76364      	222.77992      	222.77898      	222.72853      	222.7316       	222.75536      	222.6901       	222.74425      	222.72382      	222.7696       	222.74452      	222.76772      	222.78185      	222.77597      	222.77986      	222.78677      	222.77306      	222.78165      	222.761        	
222.8577       	222.88559      	222.85818      	222.86572      	222.8775       	222.89735      	222.8685       	222.8738       	222.90169      	222.91696      	222.8767       	222.85945      	222.88884      	222.85863      	222.90717      	222.89243      	222.87943      	222.84384      	222.86702      	222.85057      	222.87045      	222.83727      	222.84738      	222.85602      	222.85062      	222.85304      	222.89029      	222.8664       	222.88242      	222.91254      	222.84364      	222.85245      	222.8187       	222.83568      	222.836        	222.86551      	222.88808      	222.80658      	222.80162      	222.86107      	222.86116      	222.84113      	222.86392      	222.86392      	222.86407      	222.85509      	222.82436      	222.843        	222.80478      	222.85887      	222.87636      	222.86305      	222.83412      	222.85895      	222.82053      	222.83072      	222.84122      	222.83978      	222.8417       	222.82872      	222.81952      	222.82684      	222.83607      	222.80692      	222.77962      	222.81473      	222.83629      	222.81854      	222.82991      	222.81949      	222.84384      	222.8361       	222.84903      	222.85043      	222.84438      	222.82147      	222.84666      	222.85155      	222.8303       	222.89674      	222.87729      	222.84221      	222.86133      	222.81412      	222.8764       	222.86331      	222.85378      	222.84885      	222.88278      	222.87164      	222.84933      	222.83408      	222.85135      	222.82513      	222.83234      	222.8318       	222.82205      	222.84569      	222.80344      	222.82457      	
222.8099       	222.83243      	222.83072      	222.80307      	222.76112      	222.81522      	222.83932      	222.78192      	222.81601      	222.83585      	222.81819      	222.81462      	222.79697      	222.81406      	222.8209       	222.78938      	222.79996      	222.82884      	222.80988      	222.80186      	222.81253      	222.83714      	222.7882       	222.78069      	222.80623      	222.75797      	222.75667      	222.80354      	222.78247      	222.81366      	222.79405      	222.80597      	222.80301      	222.80557      	222.80615      	222.79007      	222.81464      	222.79396      	222.79492      	222.84584      	222.7931       	222.8234       	222.79549      	222.78973      	222.81578      	222.7845       	222.81331      	222.80118      	222.76657      	222.77832      	222.79926      	222.83603      	222.8034       	222.82037      	222.79977      	222.77892      	222.80136      	222.80011      	222.78758      	222.81044      	222.77663      	222.78035      	222.77545      	222.79378      	222.77856      	222.75374      	222.77458      	222.7968       	222.77255      	222.80325      	222.78769      	222.80731      	222.78741      	222.79085      	222.79845      	222.77069      	222.78482      	222.7532       	222.79938      	222.77742      	222.72916      	222.785        	222.75342      	222.74121      	222.7573       	222.76994      	222.796        	222.78719      	222.76373      	222.79945      	222.77682      	222.76799      	222.75705      	222.7877       	222.79045      	222.74686      	222.7589       	222.7857       	222.74506      	222.77295      	
222.68073      	222.69376      	222.68503      	222.69395      	222.6548       	222.68202      	222.68628      	222.67424      	222.66772      	222.68942      	222.68799      	222.70871      	222.71777      	222.7349       	222.68913      	222.68353      	222.68639      	222.68997      	222.6964       	222.68912      	222.67674      	222.72386      	222.69301      	222.71826      	222.75104      	222.72502      	222.74522      	222.72697      	222.71774      	222.72687      	222.73154      	222.75735      	222.71492      	222.70685      	222.72525      	222.7225       	222.73396      	222.71352      	222.75426      	222.74358      	222.74818      	222.7244       	222.72949      	222.71432      	222.72745      	222.71248      	222.73218      	222.699        	222.69118      	222.71832      	222.68416      	222.73407      	222.76897      	222.728        	222.71417      	222.69981      	222.72455      	222.71404      	222.692        	222.71568      	222.70651      	222.70876      	222.71394      	222.71072      	222.71387      	222.68341      	222.714        	222.72557      	222.70883      	222.73929      	222.7567       	222.73615      	222.76517      	222.73392      	222.75385      	222.7688       	222.7473       	222.75436      	222.74313      	222.77023      	222.7494       	222.74693      	222.77954      	222.76889      	222.76854      	222.77142      	222.71954      	222.74771      	222.7355       	222.75851      	222.75279      	222.74254      	222.7444       	222.76035      	222.73953      	222.73508      	222.7418       	222.71974      	222.72763      	222.73569      	
222.61977      	222.60126      	222.61017      	222.58961      	222.61815      	222.61777      	222.60667      	222.62343      	222.5847       	222.60365      	222.5825       	222.60623      	222.59738      	222.57423      	222.56592      	222.60191      	222.56198      	222.57178      	222.57098      	222.57394      	222.58165      	222.61514      	222.6299       	222.71715      	222.66089      	222.66661      	222.64355      	222.63942      	222.60866      	222.61002      	222.60414      	222.58952      	222.61522      	222.64037      	222.58827      	222.63411      	222.62094      	222.67236      	222.68666      	222.6671       	222.61436      	222.60052      	222.64256      	222.62782      	222.62883      	222.61766      	222.60208      	222.64975      	222.64703      	222.62987      	222.64139      	222.63268      	222.6275       	222.58827      	222.61842      	222.61317      	222.62134      	222.62155      	222.631        	222.66106      	222.65991      	222.62863      	222.6265       	222.63037      	222.6345       	222.64444      	222.63118      	222.65587      	222.64272      	222.64444      	222.64215      	222.65213      	222.64706      	222.64427      	222.66766      	222.63152      	222.64786      	222.64404      	222.6495       	222.66577      	222.67271      	222.66078      	222.67361      	222.688        	222.6633       	222.6612       	222.64862      	222.65555      	222.6516       	222.64568      	222.65356      	222.65677      	222.64215      	222.65968      	222.67755      	222.66072      	222.64552      	222.64804      	222.64868      	222.65529      	
222.5464       	222.56183      	222.57562      	222.55827      	222.54782      	222.54391      	222.5514       	222.54518      	222.5542       	222.54916      	222.5615       	222.5609       	222.55647      	222.58063      	222.5488       	222.57008      	222.54665      	222.52786      	222.56595      	222.55089      	222.53058      	222.54767      	222.53436      	222.52756      	222.52444      	222.4993       	222.52524      	222.55276      	222.50856      	222.55138      	222.51285      	222.54227      	222.52487      	222.55846      	222.54974      	222.55232      	222.57439      	222.54234      	222.52116      	222.54199      	222.56926      	222.57648      	222.57433      	222.52417      	222.56256      	222.5194       	222.52115      	222.53448      	222.56456      	222.57211      	222.55177      	222.548        	222.54964      	222.54832      	222.55112      	222.57178      	222.53917      	222.54913      	222.52255      	222.53024      	222.56187      	222.56517      	222.54297      	222.54892      	222.53493      	222.53629      	222.55534      	222.57054      	222.5359       	222.54597      	222.52611      	222.56007      	222.53519      	222.58318      	222.55779      	222.55891      	222.5445       	222.55345      	222.58954      	222.57558      	222.5621       	222.57861      	222.59308      	222.55344      	222.52829      	222.55661      	222.5391       	222.54079      	222.54227      	222.56387      	222.52383      	222.5421       	222.53185      	222.5192       	222.54947      	222.54443      	222.55524      	222.55435      	222.51418      	222.55974      	
222.73381      	222.74226      	222.7287       	222.71815      	222.68806      	222.73112      	222.69969      	222.69261      	222.70055      	222.7421       	222.70679      	222.69363      	222.72838      	222.72183      	222.72865      	222.7378       	222.70834      	222.73381      	222.72543      	222.73419      	222.68771      	222.72133      	222.66771      	222.66168      	222.6626       	222.66376      	222.6688       	222.69601      	222.65527      	222.65842      	222.65813      	222.67282      	222.65562      	222.69635      	222.65207      	222.67125      	222.63809      	222.65964      	222.64821      	222.65334      	222.65053      	222.64551      	222.65486      	222.66057      	222.66183      	222.68268      	222.69281      	222.68663      	222.64706      	222.66774      	222.71371      	222.70427      	222.65436      	222.67229      	222.65602      	222.66374      	222.6929       	222.68774      	222.67516      	222.66064      	222.69284      	222.69156      	222.70328      	222.68129      	222.69728      	222.63794      	222.64713      	222.65506      	222.62321      	222.63742      	222.61855      	222.61221      	222.63116      	222.63956      	222.63972      	222.62541      	222.62985      	222.64166      	222.63426      	222.63683      	222.62816      	222.60849      	222.63324      	222.61583      	222.56943      	222.63626      	222.6076       	222.60442      	222.64761      	222.61667      	222.63913      	222.61351      	222.62434      	222.61238      	222.62518      	222.63773      	222.6216       	222.6422       	222.67416      	222.66824      	
222.92813      	222.92781      	222.95996      	222.98549      	222.95816      	223.03253      	222.9614       	222.98817      	222.92108      	222.94084      	222.93317      	222.92162      	222.94467      	222.97433      	222.95685      	222.93188      	222.91643      	222.91055      	222.9166       	222.91138      	222.92355      	222.98177      	222.92996      	222.91678      	222.89513      	222.89394      	222.92767      	222.92421      	222.91893      	222.88974      	222.90456      	222.88417      	222.90569      	222.8915       	222.89362      	222.87476      	222.90504      	222.87524      	222.89827      	222.88458      	222.87477      	222.88914      	222.86734      	222.86407      	222.87515      	222.82794      	222.8743       	222.8547       	222.85509      	222.8414       	222.83629      	222.82733      	222.83095      	222.84073      	222.83722      	222.85379      	222.82468      	222.81169      	222.87173      	222.84149      	222.8121       	222.81813      	222.81395      	222.8147       	222.84547      	222.80965      	222.82477      	222.79886      	222.79411      	222.8217       	222.8024       	222.81989      	222.84613      	222.80067      	222.77399      	222.83041      	222.78139      	222.77357      	222.7889       	222.78343      	222.7867       	222.79117      	222.7783       	222.81342      	222.78708      	222.79079      	222.78783      	222.80247      	222.82794      	222.82683      	222.80933      	222.79483      	222.81627      	222.79628      	222.79793      	222.80324      	222.79108      	222.79886      	222.79279      	222.7847       	
223.13927      	223.11331      	223.16138      	223.13664      	223.09505      	223.09465      	223.11908      	223.10403      	223.0798       	223.09357      	223.10303      	223.08609      	223.08707      	223.081        	223.08585      	223.06282      	223.10031      	223.08578      	223.08424      	223.06735      	223.09344      	223.08942      	223.08939      	223.08266      	223.08952      	223.05942      	223.08293      	223.06322      	223.08783      	223.03978      	223.04597      	223.08148      	223.09871      	223.087        	223.10216      	223.09692      	223.10783      	223.07681      	223.11694      	223.13278      	223.10573      	223.10265      	223.097        	223.04881      	223.06993      	223.05605      	223.07101      	223.051        	223.07224      	223.11192      	223.11667      	223.10725      	223.05429      	223.08759      	223.04279      	223.05028      	223.04704      	223.01505      	223.04501      	223.07387      	223.0454       	223.03185      	223.0093       	223.0293       	223.04802      	223.032        	223.0577       	223.03082      	223.04478      	223.00897      	223.01663      	223.03648      	223.00739      	223.0123       	223.0329       	223.02243      	223.04991      	223.01123      	222.98892      	223.0337       	222.99895      	223.02586      	223.01424      	223.04646      	222.97894      	223.01219      	222.9844       	222.94696      	222.98096      	222.96823      	222.98993      	222.97696      	222.96225      	222.98106      	222.99644      	222.99553      	223.0066       	222.9686       	223.01788      	223.00179      	
223.15805      	223.16382      	223.14735      	223.11014      	223.12494      	223.17104      	223.22397      	223.17105      	223.16196      	223.17317      	223.15158      	223.16135      	223.16391      	223.16196      	223.13577      	223.15112      	223.16261      	223.15242      	223.1535       	223.14542      	223.1409       	223.14255      	223.15945      	223.14598      	223.13216      	223.12875      	223.14024      	223.11125      	223.1153       	223.14403      	223.13441      	223.16466      	223.17879      	223.15202      	223.13606      	223.14494      	223.13048      	223.09515      	223.1454       	223.14673      	223.16026      	223.13907      	223.11238      	223.10927      	223.11345      	223.16257      	223.17023      	223.12682      	223.09741      	223.08838      	223.15163      	223.12074      	223.06671      	223.13548      	223.11058      	223.10477      	223.1092       	223.06969      	223.11823      	223.10382      	223.11415      	223.12148      	223.11855      	223.10556      	223.09262      	223.08575      	223.11407      	223.10767      	223.1202       	223.07997      	223.08789      	223.08406      	223.0778       	223.08194      	223.06749      	223.04227      	223.06126      	223.05957      	223.11237      	223.11949      	223.07756      	223.06546      	223.05214      	223.05614      	223.05565      	223.06851      	223.09953      	223.0818       	223.0957       	223.11661      	223.11551      	223.1066       	223.0534       	223.04817      	223.04834      	223.06625      	223.07164      	223.06023      	223.04282      	223.10281      	
223.19553      	223.21243      	223.1986       	223.21852      	223.22751      	223.23744      	223.275        	223.24217      	223.24754      	223.19376      	223.19557      	223.21262      	223.20279      	223.19579      	223.1434       	223.19603      	223.20778      	223.1839       	223.17336      	223.15747      	223.18112      	223.17812      	223.1688       	223.1822       	223.15883      	223.15642      	223.1824       	223.23135      	223.15553      	223.16232      	223.16306      	223.18733      	223.24406      	223.18454      	223.18205      	223.17125      	223.16481      	223.16347      	223.17104      	223.15814      	223.19437      	223.16031      	223.18115      	223.15028      	223.17264      	223.1589       	223.19304      	223.16473      	223.13972      	223.15024      	223.12685      	223.13428      	223.13727      	223.16559      	223.18175      	223.17352      	223.16927      	223.16525      	223.1597       	223.16779      	223.17091      	223.13766      	223.17522      	223.16818      	223.207        	223.20287      	223.23529      	223.19713      	223.14224      	223.15872      	223.15358      	223.15492      	223.13109      	223.13051      	223.11807      	223.16116      	223.13016      	223.17503      	223.13864      	223.14378      	223.184        	223.15771      	223.15057      	223.1879       	223.1171       	223.13948      	223.15985      	223.17088      	223.12482      	223.1435       	223.13756      	223.15863      	223.14117      	223.15543      	223.14096      	223.13617      	223.13786      	223.16692      	223.16786      	223.13686      	
223.21767      	223.21051      	223.22568      	223.22243      	223.22127      	223.23492      	223.26874      	223.2635       	223.22647      	223.24506      	223.25327      	223.2305       	223.22008      	223.25034      	223.23912      	223.23413      	223.22044      	223.22607      	223.219        	223.22604      	223.24503      	223.26527      	223.25693      	223.21475      	223.19775      	223.20709      	223.23373      	223.26715      	223.25414      	223.2631       	223.2263       	223.24661      	223.24803      	223.21742      	223.20448      	223.23338      	223.2204       	223.21094      	223.23807      	223.24545      	223.21393      	223.24275      	223.23012      	223.21552      	223.18297      	223.21799      	223.26366      	223.27278      	223.28964      	223.2932       	223.26732      	223.28523      	223.28027      	223.28824      	223.2704       	223.24763      	223.24098      	223.25443      	223.24448      	223.24217      	223.27322      	223.26164      	223.25603      	223.24579      	223.24815      	223.25822      	223.27164      	223.2627       	223.26091      	223.26146      	223.23933      	223.24965      	223.268        	223.25632      	223.27043      	223.26506      	223.29315      	223.27048      	223.24333      	223.2426       	223.27011      	223.24603      	223.23016      	223.268        	223.27238      	223.20874      	223.20786      	223.25389      	223.24504      	223.24399      	223.22073      	223.22128      	223.24557      	223.21324      	223.23468      	223.25961      	223.26292      	223.25089      	223.22157      	223.22746      	
223.18668      	223.20999      	223.25743      	223.21857      	223.24301      	223.2606       	223.22646      	223.1778       	223.20746      	223.21368      	223.21121      	223.17839      	223.20346      	223.19345      	223.21461      	223.20497      	223.19327      	223.21938      	223.18814      	223.19843      	223.20735      	223.20274      	223.19142      	223.2151       	223.2256       	223.24902      	223.25179      	223.25781      	223.21184      	223.23755      	223.20476      	223.17397      	223.2129       	223.2235       	223.2034       	223.21877      	223.22635      	223.22362      	223.23143      	223.23317      	223.20184      	223.20271      	223.18503      	223.23009      	223.213        	223.19818      	223.22592      	223.20021      	223.17642      	223.17943      	223.16501      	223.20262      	223.19862      	223.20438      	223.16055      	223.1674       	223.16348      	223.21906      	223.2063       	223.20041      	223.21786      	223.2482       	223.20448      	223.20232      	223.2488       	223.23294      	223.223        	223.23697      	223.23947      	223.23329      	223.22545      	223.22325      	223.22168      	223.22542      	223.23134      	223.19662      	223.2439       	223.2045       	223.2385       	223.27467      	223.24205      	223.2527       	223.29817      	223.2381       	223.27003      	223.27574      	223.27858      	223.27113      	223.24913      	223.26683      	223.25572      	223.25343      	223.26357      	223.2531       	223.24944      	223.22174      	223.2018       	223.25258      	223.25706      	223.25714      	
223.03429      	223.06265      	223.06317      	223.0385       	223.0554       	223.0542       	223.03152      	223.04552      	223.05087      	223.01349      	223.01375      	223.00041      	223.00385      	223.01854      	223.04337      	223.02467      	223.0092       	223.00966      	223.01437      	223.03122      	223.0412       	223.01303      	223.03369      	223.0377       	223.06827      	223.02945      	223.01317      	223.01474      	223.05942      	223.02321      	223.03337      	223.0589       	223.04265      	223.04826      	223.0324       	223.02496      	223.06516      	223.05585      	223.04549      	223.04622      	223.02138      	223.04477      	223.0166       	223.03717      	223.02371      	223.05998      	222.99857      	223.02672      	222.99397      	223.02419      	223.0196       	223.0139       	223.00438      	222.9934       	223.0258       	223.01166      	223.00204      	223.00046      	223.02124      	223.0098       	223.04784      	223.05307      	223.03912      	223.00519      	223.04213      	223.05344      	223.00662      	223.0182       	223.01839      	223.05673      	223.0427       	223.05653      	223.04617      	223.04474      	223.03502      	223.04733      	223.05655      	223.01773      	223.03491      	223.04698      	223.02303      	223.02594      	223.0464       	223.05673      	223.05954      	223.0303       	223.02994      	223.05211      	223.03091      	223.04045      	223.06201      	223.05412      	222.99599      	223.02707      	223.00008      	222.98997      	223.01204      	223.01385      	223.00931      	223.02554      	
223.08643      	223.10297      	223.0779       	223.11319      	223.09149      	223.07774      	223.09912      	223.0967       	223.05574      	223.07153      	223.07014      	223.09166      	223.08344      	223.09262      	223.03941      	223.08066      	223.07689      	223.09654      	223.09763      	223.09291      	223.12508      	223.08177      	223.0948       	223.10146      	223.11742      	223.09097      	223.11977      	223.13193      	223.10329      	223.10175      	223.10594      	223.09627      	223.08224      	223.10463      	223.07315      	223.13135      	223.11         	223.087        	223.12071      	223.10773      	223.1146       	223.12567      	223.15253      	223.15428      	223.10419      	223.13014      	223.12723      	223.12448      	223.09074      	223.09985      	223.11227      	223.0961       	223.10309      	223.10135      	223.07585      	223.06796      	223.09839      	223.0994       	223.1132       	223.07806      	223.08144      	223.0847       	223.07097      	223.0979       	223.07436      	223.0901       	223.0576       	223.07716      	223.05911      	223.10243      	223.08673      	223.07864      	223.0873       	223.08192      	223.07106      	223.09337      	223.08276      	223.09221      	223.06566      	223.07494      	223.06711      	223.06808      	223.05783      	223.07965      	223.06448      	223.06609      	223.06378      	223.09323      	223.0481       	223.05751      	223.09328      	223.1019       	223.11688      	223.11105      	223.08168      	223.06631      	223.05997      	223.07748      	223.05861      	223.06581      	
222.99423      	223.00458      	223.02438      	223.04721      	223.00453      	223.02487      	223.038        	222.98624      	223.00482      	222.9798       	223.00182      	222.99327      	222.9948       	222.97092      	222.97597      	222.98329      	223.02554      	222.9962       	223.02357      	223.04759      	223.01837      	223.00568      	223.03685      	223.03928      	223.03029      	223.0023       	223.00494      	223.015        	223.01796      	223.02414      	223.03018      	223.0303       	223.06226      	223.06128      	223.0659       	223.0507       	223.05565      	223.09822      	223.11938      	223.11938      	223.06529      	223.09961      	223.0868       	223.08566      	223.11537      	223.09938      	223.06396      	223.07089      	223.06078      	223.08322      	223.0835       	223.07175      	223.06497      	223.06958      	223.07687      	223.02927      	223.02391      	223.01701      	223.01588      	223.01772      	223.0307       	223.02116      	222.99869      	223.01015      	222.99184      	222.97977      	222.98032      	223.00626      	222.98943      	222.98787      	223.00755      	223.0006       	222.96017      	222.97697      	222.97923      	222.99767      	223.0021       	223.00717      	223.00063      	222.98602      	223.01276      	222.99277      	222.96999      	223.01149      	222.99632      	223.00339      	222.99135      	222.97072      	223.0074       	222.98727      	222.95744      	223.01692      	223.04762      	223.00523      	222.97813      	223.02988      	222.99008      	222.9763       	222.96976      	222.97447      	
223.08926      	223.07501      	223.07574      	223.0708       	223.08437      	223.08682      	223.07799      	223.06477      	223.06972      	223.06664      	223.1389       	223.0961       	223.06468      	223.05624      	223.0716       	223.09776      	223.06871      	223.0805       	223.09113      	223.04921      	223.08998      	223.06601      	223.11134      	223.11526      	223.0718       	223.07771      	223.04803      	223.1018       	223.0656       	223.06374      	223.0945       	223.10733      	223.1385       	223.14125      	223.11026      	223.11757      	223.11497      	223.1404       	223.12392      	223.13239      	223.14938      	223.10971      	223.1243       	223.10953      	223.10449      	223.12091      	223.14023      	223.1009       	223.12584      	223.13292      	223.12148      	223.1085       	223.09177      	223.09459      	223.11507      	223.09837      	223.11005      	223.08391      	223.10231      	223.12982      	223.11534      	223.09317      	223.09009      	223.07986      	223.12592      	223.1304       	223.10513      	223.11156      	223.09727      	223.07684      	223.09056      	223.07655      	223.0799       	223.07738      	223.07527      	223.08548      	223.10606      	223.07364      	223.06711      	223.05862      	223.09068      	223.0453       	223.05429      	223.04172      	223.04701      	223.06323      	223.03572      	223.05978      	223.07094      	223.101        	223.10439      	223.11859      	223.07065      	223.0593       	223.02133      	223.01732      	223.02672      	223.03146      	223.03888      	223.03084      	
223.01956      	222.9977       	223.04227      	223.01303      	223.02994      	223.02672      	223.04791      	223.04337      	223.004        	223.02516      	223.02724      	223.05533      	223.01768      	223.07175      	223.08578      	223.08275      	223.06107      	223.08078      	223.04265      	223.03122      	223.0474       	223.022        	223.03513      	223.04568      	223.04305      	223.05765      	223.03285      	223.07541      	223.06331      	223.04265      	223.03091      	223.0467       	223.02174      	223.03932      	223.02995      	223.04605      	223.01685      	223.05032      	223.06845      	223.04955      	223.06435      	223.06247      	223.05931      	223.06459      	223.03394      	223.04965      	223.05728      	223.05794      	223.05788      	223.05463      	223.05699      	223.04083      	223.02655      	223.04251      	223.08464      	223.04233      	223.03809      	223.01807      	223.05441      	223.007        	223.03401      	223.02728      	223.00291      	222.99602      	223.04004      	223.03004      	223.04109      	223.06305      	223.06926      	223.0281       	223.05463      	223.05786      	223.08717      	223.08658      	223.0491       	223.0794       	223.0731       	223.06761      	223.04053      	223.07167      	223.06575      	223.06903      	223.0727       	223.0577       	223.0686       	223.03896      	223.06424      	223.10004      	223.05844      	223.0484       	223.08472      	223.05956      	223.0452       	223.0691       	223.05597      	223.07034      	223.0784       	223.04733      	223.09142      	223.06058      	
222.98012      	223.01114      	223.01604      	222.9802       	222.98592      	223.00153      	222.9888       	222.97919      	223.00589      	222.98477      	222.98134      	222.99661      	222.96274      	222.9791       	222.9931       	223.00177      	223.02924      	223.00043      	223.0223       	222.98062      	223.00024      	222.99568      	223.00987      	223.02678      	223.03542      	223.02664      	223.0276       	223.0402       	223.00171      	223.0105       	223.00063      	223.00558      	222.99208      	222.99547      	222.98268      	223.00241      	222.99986      	222.97855      	222.9791       	222.95572      	222.98717      	222.9556       	222.93327      	222.94379      	222.95851      	222.97255      	222.99269      	223.03694      	222.99854      	223.02272      	223.0149       	222.99501      	223.00406      	222.98834      	222.98618      	222.99268      	222.96922      	222.96298      	223.00705      	222.96909      	222.99408      	222.99504      	222.97964      	222.95192      	222.9551       	222.95033      	222.96387      	222.9691       	222.95749      	222.96965      	222.98285      	223.00082      	223.01385      	222.99359      	223.00912      	222.99098      	223.01562      	223.01154      	223.00255      	222.99652      	222.98074      	223.00352      	223.01764      	223.03763      	223.01831      	223.04605      	223.04214      	223.02219      	223.01602      	222.9828       	223.00255      	222.99512      	223.046        	223.01122      	223.03891      	223.0021       	222.99818      	223.00014      	223.0113       	223.00453      	
223.00414      	222.97346      	222.97         	222.97357      	222.9809       	222.99113      	223.00844      	222.99106      	222.95728      	222.99376      	222.95895      	222.97646      	222.95572      	222.9335       	222.93977      	222.93384      	222.91324      	222.94174      	222.9528       	222.93619      	222.96872      	222.9244       	222.97264      	222.9589       	222.9432       	222.89592      	222.9554       	222.9363       	222.94102      	222.96164      	222.9284       	222.91898      	222.89748      	222.9278       	222.93051      	222.97354      	222.97726      	222.97653      	222.99203      	222.98885      	222.96233      	222.96849      	222.96541      	222.95947      	222.99387      	222.94531      	222.97127      	222.95784      	222.97182      	222.973        	222.927        	223.03053      	222.98048      	222.962        	222.96259      	222.9689       	222.9633       	222.96556      	222.96463      	223.03348      	222.9685       	222.96889      	222.96075      	222.96971      	222.9359       	222.96411      	222.98611      	222.96289      	222.96918      	222.97348      	222.9479       	222.95265      	222.96419      	222.97575      	222.95557      	222.95999      	222.96315      	222.9608       	222.96341      	222.94156      	222.96957      	222.98944      	222.93108      	222.95851      	222.95676      	222.94531      	222.95786      	222.95312      	222.97775      	222.96017      	222.95361      	222.95494      	222.94359      	223.01758      	222.96036      	222.93701      	222.96191      	222.96707      	222.95038      	222.94542      	
222.99481      	223.03099      	223.02345      	223.04793      	223.03769      	223.04884      	223.02599      	223.02353      	222.9939       	223.00816      	223.01503      	223.03058      	223.02945      	223.03464      	223.03888      	223.03712      	223.0151       	223.03223      	223.0111       	223.01979      	223.03223      	223.0181       	223.0119       	223.01349      	222.99838      	222.98985      	223.00595      	223.0031       	223.01898      	223.01256      	223.00526      	223.00601      	223.03151      	223.0121       	223.02238      	223.0086       	223.01828      	223.03784      	223.01913      	223.01353      	223.03537      	222.97604      	222.97284      	223.01215      	222.98923      	223.01303      	223.02098      	222.99826      	223.02753      	223.00815      	223.02489      	223.01279      	223.0428       	223.07697      	223.07143      	223.05516      	223.05356      	223.0039       	222.99442      	222.98584      	222.98727      	222.99344      	222.97214      	223.00432      	222.99518      	222.98012      	223.00241      	222.97803      	222.99066      	223.00294      	222.98651      	223.00047      	222.9947       	222.97678      	222.99594      	222.98053      	222.9873       	222.9992       	222.99405      	223.01154      	222.95966      	222.97304      	222.95996      	222.98904      	222.95755      	222.98143      	222.99313      	222.96715      	222.97939      	222.97726      	222.95793      	222.95729      	222.9837       	222.98845      	222.99774      	222.98148      	222.93059      	222.95554      	222.93576      	222.9558       	
223.16269      	223.11476      	223.11368      	223.10938      	223.13661      	223.13528      	223.1138       	223.14215      	223.1279       	223.12196      	223.11314      	223.11287      	223.14423      	223.16055      	223.15245      	223.14865      	223.1496       	223.10355      	223.10481      	223.11769      	223.11452      	223.15063      	223.12497      	223.1409       	223.13933      	223.12318      	223.13792      	223.14125      	223.14467      	223.13422      	223.13243      	223.1339       	223.126        	223.15277      	223.13785      	223.16791      	223.15782      	223.14487      	223.13968      	223.09685      	223.08539      	223.1358       	223.12733      	223.10959      	223.1267       	223.10985      	223.10863      	223.1062       	223.15587      	223.10992      	223.08173      	223.06703      	223.0705       	223.08138      	223.0543       	223.0711       	223.08353      	223.06918      	223.06949      	223.06943      	223.0659       	223.09935      	223.08344      	223.06874      	223.06215      	223.06908      	223.08194      	223.06749      	223.05492      	223.05548      	223.03854      	223.08421      	223.10466      	223.1199       	223.07877      	223.06847      	223.05801      	223.06235      	223.06358      	223.04636      	223.09052      	223.06892      	223.05338      	223.07315      	223.02309      	223.043        	223.0443       	223.02525      	223.01675      	223.03412      	223.0433       	223.06966      	223.04367      	223.03818      	223.05304      	223.04523      	223.08838      	223.07481      	223.07268      	223.05109      	
223.11374      	223.15726      	223.17125      	223.112        	223.17015      	223.09238      	223.11398      	223.09482      	223.13718      	223.12173      	223.14847      	223.10269      	223.1285       	223.13954      	223.16043      	223.12535      	223.12277      	223.0812       	223.13873      	223.12692      	223.11841      	223.11502      	223.10402      	223.11009      	223.13332      	223.1348       	223.112        	223.11792      	223.14438      	223.12999      	223.09628      	223.1145       	223.12527      	223.12364      	223.12039      	223.10362      	223.15091      	223.11935      	223.1432       	223.09113      	223.1341       	223.15338      	223.1245       	223.12196      	223.12143      	223.13605      	223.1211       	223.11142      	223.1096       	223.149        	223.13058      	223.13092      	223.12064      	223.1321       	223.16791      	223.11086      	223.1345       	223.10686      	223.12102      	223.11844      	223.0901       	223.1409       	223.11533      	223.09503      	223.09206      	223.11258      	223.09927      	223.08461      	223.09532      	223.088        	223.09003      	223.07343      	223.11403      	223.10304      	223.10281      	223.08322      	223.09108      	223.0794       	223.09012      	223.08388      	223.10883      	223.0911       	223.07909      	223.07101      	223.10661      	223.08617      	223.08595      	223.10132      	223.06146      	223.05705      	223.08522      	223.09709      	223.11559      	223.07771      	223.08449      	223.11395      	223.08266      	223.05638      	223.08585      	223.0598       	
223.15567      	223.13484      	223.14687      	223.12889      	223.14691      	223.14992      	223.13597      	223.17601      	223.1323       	223.16406      	223.1588       	223.19528      	223.2006       	223.21393      	223.20055      	223.16177      	223.13206      	223.13783      	223.13159      	223.15355      	223.16037      	223.21158      	223.12369      	223.13983      	223.16144      	223.15257      	223.1423       	223.11217      	223.13255      	223.12263      	223.11388      	223.11008      	223.117        	223.0908       	223.09766      	223.10301      	223.09023      	223.07777      	223.08057      	223.10045      	223.0784       	223.10213      	223.1098       	223.10611      	223.11879      	223.0897       	223.10175      	223.09926      	223.16481      	223.10529      	223.1487       	223.09991      	223.10915      	223.09026      	223.12375      	223.12863      	223.11375      	223.10971      	223.10623      	223.12524      	223.12532      	223.12189      	223.08698      	223.10277      	223.10075      	223.09831      	223.10303      	223.12543      	223.13254      	223.11906      	223.1151       	223.10434      	223.15538      	223.16455      	223.14708      	223.17735      	223.15465      	223.1764       	223.16263      	223.14845      	223.15193      	223.1518       	223.13223      	223.12265      	223.21161      	223.1664       	223.1386       	223.14545      	223.15424      	223.13573      	223.17345      	223.14142      	223.13963      	223.107        	223.09448      	223.14146      	223.1561       	223.12549      	223.1197       	223.10316      	
223.21884      	223.18457      	223.17293      	223.18524      	223.20763      	223.19208      	223.18555      	223.18399      	223.18265      	223.1582       	223.17244      	223.15395      	223.18555      	223.14774      	223.1416       	223.14708      	223.17897      	223.1365       	223.13695      	223.13225      	223.1828       	223.11043      	223.1361       	223.13063      	223.16574      	223.15353      	223.1539       	223.17433      	223.16098      	223.15077      	223.19986      	223.14024      	223.1518       	223.15814      	223.14876      	223.16437      	223.1573       	223.16493      	223.1673       	223.14035      	223.15392      	223.1529       	223.13875      	223.17209      	223.1531       	223.20157      	223.16917      	223.19287      	223.16708      	223.16902      	223.15353      	223.1547       	223.1784       	223.21124      	223.20233      	223.16821      	223.16325      	223.15639      	223.15894      	223.1747       	223.16895      	223.14299      	223.15231      	223.16359      	223.14421      	223.1467       	223.1613       	223.15454      	223.17892      	223.14325      	223.18422      	223.17537      	223.12477      	223.16656      	223.1612       	223.16452      	223.19347      	223.18489      	223.18578      	223.21317      	223.18433      	223.17302      	223.14136      	223.13991      	223.18265      	223.20448      	223.17502      	223.17665      	223.17252      	223.19598      	223.21576      	223.1988       	223.20819      	223.19656      	223.20009      	223.22972      	223.26813      	223.24715      	223.2044       	223.21588      	
223.34344      	223.37103      	223.29587      	223.29762      	223.31107      	223.30618      	223.30101      	223.29362      	223.30862      	223.29828      	223.30588      	223.29507      	223.30357      	223.28         	223.2711       	223.29648      	223.27882      	223.31393      	223.31252      	223.27855      	223.25594      	223.25792      	223.26788      	223.27652      	223.27225      	223.28198      	223.28825      	223.26163      	223.25148      	223.27759      	223.30452      	223.30542      	223.26222      	223.27206      	223.28053      	223.28426      	223.27745      	223.277        	223.27667      	223.27078      	223.27547      	223.31467      	223.27081      	223.28418      	223.26369      	223.2755       	223.30687      	223.25888      	223.25719      	223.25716      	223.26341      	223.29648      	223.29953      	223.2396       	223.24124      	223.22035      	223.24124      	223.21419      	223.23277      	223.21045      	223.21208      	223.19734      	223.1967       	223.20114      	223.19342      	223.18887      	223.22867      	223.2185       	223.2029       	223.2077       	223.21657      	223.1924       	223.19441      	223.18018      	223.18365      	223.20099      	223.22673      	223.18613      	223.22527      	223.18063      	223.23009      	223.21857      	223.2044       	223.22235      	223.25401      	223.21121      	223.23476      	223.23964      	223.21451      	223.21324      	223.2381       	223.21921      	223.18393      	223.21223      	223.2119       	223.21112      	223.22487      	223.21654      	223.21886      	223.21948      	
223.40875      	223.41574      	223.38744      	223.37329      	223.38425      	223.38768      	223.40219      	223.39046      	223.36638      	223.37616      	223.39328      	223.44067      	223.43132      	223.46454      	223.45184      	223.47171      	223.41954      	223.43126      	223.4514       	223.42073      	223.41927      	223.40993      	223.41449      	223.4218       	223.43367      	223.39648      	223.40244      	223.43115      	223.43378      	223.4175       	223.42903      	223.44833      	223.44681      	223.41481      	223.40695      	223.48827      	223.42563      	223.42882      	223.49037      	223.47647      	223.41946      	223.42268      	223.43472      	223.41023      	223.4158       	223.41862      	223.42746      	223.39671      	223.41298      	223.40529      	223.40762      	223.41649      	223.42673      	223.40231      	223.36801      	223.40579      	223.38908      	223.39299      	223.39291      	223.39485      	223.40224      	223.39476      	223.4017       	223.39572      	223.39557      	223.38362      	223.38689      	223.38535      	223.3724       	223.38559      	223.35815      	223.36453      	223.36075      	223.36539      	223.34555      	223.34879      	223.31982      	223.37134      	223.36465      	223.3887       	223.39836      	223.37326      	223.3762       	223.34808      	223.31145      	223.34348      	223.34116      	223.35045      	223.33925      	223.36057      	223.3675       	223.28726      	223.34132      	223.34715      	223.33116      	223.33022      	223.33594      	223.34383      	223.33537      	223.33275      	
223.55698      	223.54315      	223.57089      	223.54837      	223.5554       	223.56763      	223.54817      	223.56592      	223.58498      	223.55263      	223.56264      	223.55788      	223.53624      	223.56808      	223.55972      	223.54913      	223.55618      	223.57448      	223.58197      	223.58282      	223.57504      	223.59479      	223.60272      	223.58922      	223.57138      	223.55444      	223.54271      	223.57094      	223.53596      	223.54982      	223.54175      	223.53061      	223.5284       	223.5486       	223.52675      	223.50302      	223.53978      	223.55176      	223.54088      	223.52643      	223.5187       	223.53006      	223.55534      	223.57195      	223.56326      	223.56752      	223.52176      	223.5255       	223.52676      	223.5236       	223.51581      	223.53758      	223.54575      	223.54262      	223.51674      	223.54028      	223.5152       	223.50185      	223.50586      	223.52493      	223.51425      	223.49994      	223.47974      	223.50163      	223.49542      	223.5231       	223.55898      	223.56198      	223.52623      	223.48753      	223.52841      	223.50638      	223.49384      	223.50034      	223.51097      	223.50429      	223.48097      	223.49648      	223.51335      	223.4988       	223.49869      	223.512        	223.50894      	223.5202       	223.47615      	223.48907      	223.50334      	223.50613      	223.50896      	223.48608      	223.50055      	223.47134      	223.50911      	223.50453      	223.51859      	223.4973       	223.48512      	223.48907      	223.49577      	223.48836      	
223.42204      	223.4537       	223.43343      	223.46565      	223.46501      	223.45068      	223.45877      	223.44122      	223.43346      	223.46983      	223.47252      	223.4689       	223.48933      	223.44719      	223.42616      	223.48032      	223.44342      	223.4306       	223.49847      	223.45956      	223.48004      	223.51213      	223.46721      	223.51726      	223.47491      	223.48688      	223.5163       	223.4405       	223.47589      	223.46178      	223.45811      	223.47067      	223.45546      	223.47298      	223.45631      	223.44485      	223.47299      	223.45804      	223.49577      	223.47154      	223.46603      	223.4677       	223.42862      	223.47179      	223.47084      	223.44374      	223.4196       	223.44305      	223.41374      	223.42578      	223.47447      	223.43512      	223.46498      	223.46648      	223.44061      	223.47108      	223.49704      	223.50877      	223.50171      	223.46896      	223.46971      	223.48811      	223.45961      	223.47655      	223.4538       	223.46576      	223.48917      	223.50087      	223.44525      	223.44672      	223.5114       	223.50017      	223.48976      	223.49966      	223.47784      	223.49567      	223.48407      	223.4798       	223.50235      	223.49315      	223.49254      	223.50049      	223.50284      	223.49258      	223.47565      	223.51146      	223.49178      	223.51979      	223.51584      	223.52873      	223.52995      	223.54005      	223.50136      	223.50348      	223.49954      	223.50868      	223.5075       	223.51878      	223.51483      	223.50282      	
223.54872      	223.60231      	223.5881       	223.58217      	223.56618      	223.55739      	223.5711       	223.54507      	223.53278      	223.561        	223.52707      	223.54709      	223.54147      	223.56046      	223.56142      	223.5366       	223.52751      	223.51134      	223.54099      	223.50578      	223.55061      	223.4987       	223.53719      	223.50781      	223.5231       	223.48209      	223.52875      	223.54068      	223.56207      	223.54349      	223.53656      	223.5048       	223.5318       	223.53745      	223.50845      	223.51749      	223.49828      	223.51775      	223.5248       	223.51369      	223.48997      	223.49095      	223.50693      	223.50331      	223.48073      	223.49588      	223.47057      	223.43864      	223.461        	223.4529       	223.4625       	223.4614       	223.46515      	223.50458      	223.44913      	223.47084      	223.46222      	223.45119      	223.4985       	223.46837      	223.48448      	223.44939      	223.44948      	223.45053      	223.4432       	223.46866      	223.47884      	223.44069      	223.46216      	223.4402       	223.4081       	223.46222      	223.42203      	223.43045      	223.4542       	223.52663      	223.49088      	223.45361      	223.42667      	223.46329      	223.41913      	223.43074      	223.43791      	223.49692      	223.45181      	223.48975      	223.4339       	223.45815      	223.4704       	223.47128      	223.46976      	223.46664      	223.46231      	223.46469      	223.47585      	223.47615      	223.45062      	223.45801      	223.48917      	223.45973      	
223.35847      	223.40697      	223.40175      	223.36339      	223.42024      	223.4008       	223.43024      	223.39645      	223.38683      	223.39047      	223.43237      	223.45891      	223.43181      	223.41522      	223.3677       	223.38687      	223.41258      	223.40211      	223.39851      	223.40367      	223.451        	223.42047      	223.39825      	223.40964      	223.43993      	223.49081      	223.43068      	223.40738      	223.38086      	223.44122      	223.43448      	223.45775      	223.42862      	223.42967      	223.44565      	223.43987      	223.41342      	223.43903      	223.44566      	223.45692      	223.45267      	223.43602      	223.41911      	223.4017       	223.41385      	223.42537      	223.45546      	223.44395      	223.42514      	223.41624      	223.436        	223.44221      	223.46031      	223.45045      	223.46628      	223.42662      	223.44492      	223.4378       	223.48618      	223.49132      	223.44936      	223.45152      	223.44485      	223.4455       	223.43185      	223.45819      	223.48778      	223.47655      	223.45921      	223.46124      	223.476        	223.48285      	223.44629      	223.44344      	223.47098      	223.45917      	223.45964      	223.43481      	223.46805      	223.46819      	223.45724      	223.47105      	223.45142      	223.46231      	223.49307      	223.462        	223.45215      	223.44655      	223.46474      	223.46413      	223.43393      	223.44203      	223.42442      	223.45264      	223.45891      	223.47339      	223.48373      	223.46703      	223.45459      	223.43451      	
223.40004      	223.43878      	223.41173      	223.45961      	223.46487      	223.48553      	223.44412      	223.47296      	223.46062      	223.48752      	223.44904      	223.4498       	223.44064      	223.4607       	223.42758      	223.42491      	223.4278       	223.42033      	223.43515      	223.45131      	223.48363      	223.44939      	223.45169      	223.44754      	223.44118      	223.46321      	223.47182      	223.4475       	223.4507       	223.47063      	223.42775      	223.39401      	223.412        	223.4529       	223.43265      	223.42389      	223.44456      	223.43579      	223.41983      	223.40208      	223.42278      	223.39209      	223.3596       	223.3901       	223.38354      	223.38539      	223.37556      	223.42227      	223.41295      	223.42435      	223.40535      	223.38889      	223.38754      	223.3736       	223.38535      	223.3872       	223.3701       	223.37343      	223.39883      	223.38646      	223.38544      	223.36758      	223.41466      	223.39041      	223.38268      	223.37587      	223.38232      	223.36398      	223.369        	223.37767      	223.36166      	223.38385      	223.41539      	223.39633      	223.41731      	223.3627       	223.37239      	223.42302      	223.42557      	223.43944      	223.4091       	223.36852      	223.3836       	223.38727      	223.41595      	223.37254      	223.36336      	223.37416      	223.38199      	223.36777      	223.35875      	223.40456      	223.41127      	223.40642      	223.3841       	223.34846      	223.36105      	223.34666      	223.36646      	223.36008      	
223.53165      	223.52274      	223.55577      	223.55724      	223.51196      	223.52902      	223.55867      	223.54657      	223.52805      	223.51251      	223.53328      	223.51678      	223.53586      	223.55696      	223.5481       	223.5551       	223.53607      	223.58331      	223.5481       	223.54942      	223.59007      	223.5505       	223.54544      	223.54126      	223.55634      	223.55362      	223.53188      	223.5587       	223.53868      	223.54953      	223.54752      	223.55394      	223.58592      	223.61313      	223.55672      	223.56398      	223.567        	223.55664      	223.55724      	223.52475      	223.50969      	223.53108      	223.56407      	223.52864      	223.51122      	223.55476      	223.55504      	223.51514      	223.52101      	223.54877      	223.52733      	223.54752      	223.53448      	223.53896      	223.5582       	223.56058      	223.54826      	223.50917      	223.48605      	223.52567      	223.49742      	223.50002      	223.50429      	223.48386      	223.48378      	223.50238      	223.47902      	223.52106      	223.47638      	223.4639       	223.53156      	223.53139      	223.53537      	223.5231       	223.52884      	223.52919      	223.51572      	223.48688      	223.49069      	223.51897      	223.5325       	223.49072      	223.48274      	223.46129      	223.49072      	223.51996      	223.48167      	223.51984      	223.54427      	223.46983      	223.53622      	223.49675      	223.50635      	223.47018      	223.48422      	223.48099      	223.46527      	223.48308      	223.47395      	223.47203      	
223.79974      	223.83513      	223.81061      	223.84164      	223.83203      	223.81964      	223.80356      	223.78073      	223.79958      	223.79303      	223.81674      	223.79007      	223.7663       	223.77547      	223.77116      	223.76532      	223.78004      	223.7523       	223.72536      	223.74644      	223.77742      	223.73422      	223.76923      	223.7443       	223.76894      	223.76654      	223.7426       	223.71695      	223.71237      	223.71979      	223.69531      	223.73666      	223.6862       	223.69685      	223.70232      	223.66017      	223.68474      	223.65561      	223.65945      	223.63809      	223.65729      	223.64305      	223.64676      	223.6395       	223.62009      	223.6502       	223.63762      	223.61418      	223.62305      	223.61792      	223.62698      	223.61513      	223.63272      	223.62637      	223.61078      	223.59831      	223.59683      	223.58034      	223.57228      	223.57756      	223.58383      	223.56787      	223.59831      	223.56561      	223.55583      	223.53517      	223.5722       	223.55956      	223.54353      	223.54677      	223.56729      	223.55219      	223.53912      	223.57008      	223.58928      	223.57553      	223.54922      	223.59456      	223.55112      	223.5532       	223.56161      	223.57936      	223.59067      	223.56738      	223.55006      	223.5822       	223.56544      	223.59662      	223.62161      	223.6018       	223.59406      	223.61159      	223.5948       	223.594        	223.57445      	223.6174       	223.60815      	223.62346      	223.59348      	223.61691      	
223.93796      	223.9362       	223.91214      	223.95103      	223.96397      	223.92348      	223.92776      	223.90976      	223.89192      	223.95418      	223.93898      	223.92839      	223.93358      	223.90993      	223.9091       	223.95236      	223.90868      	223.91885      	223.944        	223.98463      	223.94984      	223.95172      	223.91254      	223.90714      	223.89806      	223.93344      	223.92435      	223.9065       	223.90582      	223.91106      	223.89919      	223.89508      	223.94943      	223.93343      	223.93454      	223.9346       	223.89479      	223.94785      	223.87892      	223.91066      	223.92007      	223.899        	223.9169       	223.91493      	223.93866      	223.92471      	223.91716      	223.95285      	223.9218       	223.92258      	223.90105      	223.88759      	223.9131       	223.85529      	223.89383      	223.9184       	223.92429      	223.91977      	223.90234      	223.90015      	223.92252      	223.9203       	223.8842       	223.89761      	223.90121      	223.89479      	223.91971      	223.89078      	223.87282      	223.90546      	223.90729      	223.9174       	223.90422      	223.90187      	223.90855      	223.93668      	223.89049      	223.91681      	223.90495      	223.89597      	223.92413      	223.9322       	223.9285       	223.9118       	223.8998       	223.92307      	223.90872      	223.9257       	223.92084      	223.90953      	223.90121      	223.94667      	223.95695      	223.87923      	223.87523      	223.89003      	223.86768      	223.8562       	223.88818      	223.88089      	
223.8637       	223.84506      	223.8389       	223.84984      	223.79791      	223.82816      	223.82726      	223.82779      	223.84506      	223.85646      	223.85341      	223.8723       	223.8628       	223.85922      	223.82474      	223.8469       	223.824        	223.84982      	223.80942      	223.80841      	223.84174      	223.8864       	223.84619      	223.85394      	223.82332      	223.82138      	223.80574      	223.81503      	223.83539      	223.84026      	223.85042      	223.86932      	223.85028      	223.84995      	223.81717      	223.84877      	223.82217      	223.8227       	223.86813      	223.85585      	223.84001      	223.86034      	223.88759      	223.88023      	223.86192      	223.8869       	223.87428      	223.87743      	223.87587      	223.89822      	223.86029      	223.87434      	223.84915      	223.85965      	223.8637       	223.86464      	223.83087      	223.87337      	223.86784      	223.88899      	223.89862      	223.87729      	223.86214      	223.85098      	223.90167      	223.87547      	223.87717      	223.87819      	223.84288      	223.84421      	223.82895      	223.82913      	223.8439       	223.83505      	223.88084      	223.86562      	223.87395      	223.87836      	223.82542      	223.83063      	223.89984      	223.8694       	223.90811      	223.84125      	223.87547      	223.84808      	223.844        	223.85175      	223.87123      	223.84041      	223.82938      	223.82886      	223.81216      	223.85545      	223.87454      	223.86159      	223.82103      	223.86752      	223.90364      	223.89168      	
223.76451      	223.76056      	223.81354      	223.77676      	223.7692       	223.77452      	223.78073      	223.72836      	223.76382      	223.76569      	223.75945      	223.74472      	223.74829      	223.76158      	223.74889      	223.78128      	223.75897      	223.77328      	223.72528      	223.74896      	223.73299      	223.75618      	223.7666       	223.76532      	223.75473      	223.7527       	223.74348      	223.76602      	223.75603      	223.74005      	223.77228      	223.8202       	223.75616      	223.76405      	223.80316      	223.81616      	223.78152      	223.76562      	223.75961      	223.75868      	223.75853      	223.76286      	223.77103      	223.74811      	223.75882      	223.74843      	223.72206      	223.73624      	223.76968      	223.74553      	223.73402      	223.72527      	223.73332      	223.73822      	223.74756      	223.73366      	223.72409      	223.74783      	223.72614      	223.72632      	223.75014      	223.74933      	223.7507       	223.71815      	223.70331      	223.75194      	223.73929      	223.73576      	223.73766      	223.70547      	223.72932      	223.69865      	223.71637      	223.7116       	223.76888      	223.75658      	223.77228      	223.74437      	223.7768       	223.76839      	223.82509      	223.78526      	223.761        	223.742        	223.78763      	223.74966      	223.74208      	223.73         	223.73717      	223.70267      	223.70396      	223.71584      	223.73703      	223.69733      	223.73622      	223.76247      	223.74438      	223.79381      	223.83084      	223.79538      	
223.79874      	223.77626      	223.78688      	223.81732      	223.79921      	223.7965       	223.78645      	223.79044      	223.80112      	223.76044      	223.77924      	223.80814      	223.77274      	223.77777      	223.80858      	223.81721      	223.767        	223.78952      	223.77292      	223.76375      	223.76686      	223.80621      	223.74667      	223.741        	223.74431      	223.75417      	223.74504      	223.75235      	223.7434       	223.73175      	223.70975      	223.74893      	223.7259       	223.72797      	223.7146       	223.7592       	223.7802       	223.75342      	223.75607      	223.7755       	223.80093      	223.822        	223.73805      	223.76497      	223.7545       	223.78067      	223.75197      	223.75822      	223.74414      	223.74228      	223.73561      	223.74707      	223.73581      	223.72528      	223.73244      	223.77351      	223.76114      	223.7567       	223.75105      	223.79405      	223.7453       	223.803        	223.7671       	223.78151      	223.74477      	223.72917      	223.73654      	223.73341      	223.72293      	223.74423      	223.75693      	223.74835      	223.77081      	223.77249      	223.73634      	223.73766      	223.71298      	223.75055      	223.7478       	223.70856      	223.78696      	223.7291       	223.75114      	223.737        	223.77092      	223.75278      	223.75587      	223.73207      	223.74757      	223.7672       	223.74913      	223.7778       	223.7654       	223.76112      	223.74916      	223.76984      	223.73558      	223.792        	223.82405      	223.80162      	
223.77434      	223.7492       	223.75789      	223.76637      	223.75952      	223.77826      	223.74564      	223.79012      	223.77426      	223.79042      	223.76735      	223.77084      	223.75511      	223.7984       	223.7526       	223.7925       	223.76456      	223.79156      	223.75946      	223.7577       	223.76154      	223.72635      	223.7347       	223.75763      	223.7762       	223.7529       	223.75635      	223.73349      	223.74373      	223.77335      	223.74997      	223.72145      	223.7268       	223.69783      	223.74861      	223.75845      	223.73976      	223.76277      	223.69287      	223.75943      	223.75157      	223.72964      	223.73817      	223.73468      	223.69987      	223.73424      	223.74083      	223.73341      	223.73123      	223.70874      	223.72057      	223.69952      	223.67596      	223.71007      	223.71544      	223.70595      	223.7033       	223.72849      	223.73419      	223.71481      	223.71779      	223.70645      	223.70654      	223.69308      	223.692        	223.70372      	223.70013      	223.68195      	223.72516      	223.71823      	223.70436      	223.73553      	223.72507      	223.69054      	223.70575      	223.70016      	223.71266      	223.6919       	223.70583      	223.73749      	223.66707      	223.7203       	223.71886      	223.69305      	223.69632      	223.71094      	223.68459      	223.70042      	223.71588      	223.6923       	223.66827      	223.6965       	223.6748       	223.68112      	223.69786      	223.70045      	223.68675      	223.70738      	223.72325      	223.71864      	
223.88829      	223.91982      	223.89835      	223.8804       	223.88167      	223.89989      	223.9462       	223.93393      	223.95183      	223.92047      	223.87357      	223.8789       	223.8735       	223.88234      	223.87164      	223.89613      	223.90262      	223.91887      	223.9282       	223.92943      	223.93376      	223.90056      	223.9353       	223.89725      	223.90912      	223.95197      	223.91371      	223.92584      	223.87526      	223.86464      	223.90512      	223.8515       	223.87605      	223.85927      	223.86317      	223.88437      	223.84969      	223.88092      	223.86516      	223.88583      	223.87921      	223.85121      	223.8663       	223.84172      	223.86777      	223.8916       	223.86192      	223.86899      	223.89233      	223.90378      	223.91667      	223.88452      	223.87384      	223.89868      	223.84015      	223.86891      	223.88844      	223.8657       	223.90291      	223.90787      	223.89         	223.87015      	223.8906       	223.89616      	223.89085      	223.87823      	223.8714       	223.88783      	223.92854      	223.89293      	223.88168      	223.88216      	223.84889      	223.83887      	223.82642      	223.82074      	223.80208      	223.81291      	223.80486      	223.79013      	223.805        	223.78456      	223.82394      	223.83206      	223.87419      	223.84792      	223.88661      	223.85422      	223.88225      	223.89684      	223.86469      	223.87979      	223.8952       	223.86964      	223.88264      	223.84506      	223.86842      	223.86337      	223.87234      	223.89062      	
224.03351      	223.98988      	223.95863      	223.99765      	223.99417      	223.96582      	223.99278      	223.98204      	223.95546      	223.96858      	223.98593      	223.99435      	223.96356      	223.98575      	223.97018      	223.9315       	223.95367      	223.97182      	223.99881      	223.99274      	223.96411      	223.98836      	224.00195      	223.9629       	223.98512      	223.99501      	223.98819      	224.01978      	223.97786      	223.95102      	223.92496      	223.93735      	223.96027      	223.93822      	223.93864      	223.93132      	223.9541       	223.92906      	223.94081      	223.95358      	223.95633      	223.92181      	223.92801      	223.92128      	223.97804      	223.92752      	223.90462      	223.91782      	223.89299      	223.96495      	223.93167      	223.92146      	223.9631       	223.9183       	223.92003      	223.93156      	223.92226      	223.91396      	223.89673      	223.90666      	223.89735      	223.88208      	223.924        	223.90402      	223.86624      	223.867        	223.90599      	223.91869      	223.91786      	223.90384      	223.89352      	223.89845      	223.87717      	223.88104      	223.8799       	223.86026      	223.85838      	223.87694      	223.88327      	223.87564      	223.84012      	223.878        	223.89095      	223.88422      	223.91685      	223.89565      	223.88959      	223.86896      	223.88202      	223.8644       	223.86052      	223.86401      	223.8683       	223.86867      	223.85634      	223.86732      	223.8703       	223.87035      	223.89227      	223.86969      	
224.09178      	224.10507      	224.11075      	224.0809       	224.12038      	224.11673      	224.11163      	224.12645      	224.0992       	224.11426      	224.11343      	224.09471      	224.153        	224.14236      	224.15622      	224.10962      	224.12547      	224.097        	224.10448      	224.1076       	224.10669      	224.09319      	224.11247      	224.09494      	224.088        	224.1046       	224.10863      	224.11412      	224.12662      	224.1163       	224.12753      	224.08994      	224.13142      	224.15623      	224.13113      	224.17892      	224.11955      	224.13235      	224.12901      	224.13596      	224.11383      	224.11159      	224.09319      	224.11897      	224.10663      	224.07373      	224.09186      	224.09097      	224.07576      	224.10117      	224.10321      	224.13747      	224.15256      	224.11745      	224.10066      	224.08119      	224.08578      	224.11362      	224.11746      	224.07689      	224.10965      	224.10027      	224.10147      	224.09125      	224.07463      	224.08301      	224.08772      	224.08398      	224.06642      	224.06693      	224.09096      	224.0865       	224.07219      	224.0721       	224.07753      	224.109        	224.0682       	224.06277      	224.08356      	224.0502       	224.05461      	224.09424      	224.08844      	224.09637      	224.02843      	224.07738      	224.09352      	224.07574      	224.06795      	224.09866      	224.08481      	224.06017      	224.0438       	224.05849      	224.08133      	224.06825      	224.08035      	224.07405      	224.04459      	224.05858      	
223.9007       	223.94528      	223.93117      	223.90741      	223.90648      	223.94505      	223.92714      	223.92487      	223.88583      	223.923        	223.90047      	223.90314      	223.89502      	223.90103      	223.88426      	223.88815      	223.91429      	223.91162      	223.94284      	223.9515       	223.96368      	223.90625      	223.9075       	223.91748      	223.93893      	223.9253       	223.92455      	223.91528      	223.94269      	223.91933      	223.88776      	223.89966      	223.86139      	223.88528      	223.89543      	223.91983      	223.94287      	223.93295      	223.90335      	223.93352      	223.91623      	223.92056      	223.90129      	223.88892      	223.94403      	223.91238      	223.92326      	223.89928      	223.93604      	223.92369      	223.93187      	223.89667      	223.94545      	223.9388       	223.9332       	223.96167      	223.92117      	223.92763      	223.93082      	223.92584      	223.92764      	223.88927      	223.94499      	223.96396      	223.93478      	223.93256      	223.96014      	223.98349      	223.94507      	223.94559      	223.98439      	224.02051      	223.97208      	223.96536      	223.96115      	223.96574      	224.00317      	223.96246      	223.99121      	223.98569      	224.0022       	223.98991      	223.99315      	223.98183      	223.9837       	223.9905       	224.0108       	223.98476      	223.97928      	224.02911      	223.96886      	223.98521      	223.98634      	223.98212      	223.973        	223.95921      	223.99023      	224.01273      	223.99245      	223.96068      	
223.89813      	223.87035      	223.83147      	223.80647      	223.84114      	223.84264      	223.8336       	223.82512      	223.82756      	223.80045      	223.8284       	223.82787      	223.83171      	223.81485      	223.80812      	223.77365      	223.77597      	223.78477      	223.81194      	223.79881      	223.77602      	223.80452      	223.87321      	223.81804      	223.8431       	223.84074      	223.81541      	223.8137       	223.82346      	223.865        	223.85512      	223.82677      	223.82317      	223.82332      	223.8248       	223.78055      	223.83612      	223.81956      	223.77751      	223.84618      	223.8461       	223.81065      	223.79694      	223.80809      	223.80936      	223.81805      	223.79808      	223.8178       	223.80145      	223.80054      	223.89369      	223.83194      	223.77504      	223.80443      	223.76668      	223.75587      	223.74252      	223.76108      	223.77077      	223.77927      	223.7577       	223.78415      	223.9068       	223.84743      	223.79443      	223.80089      	223.81468      	223.79987      	223.79718      	223.80936      	223.79558      	223.77188      	223.79575      	223.77466      	223.7777       	223.80403      	223.80423      	223.78375      	223.78616      	223.83023      	223.79517      	223.77557      	223.82118      	223.81448      	223.77539      	223.80354      	223.76964      	223.77396      	223.79709      	223.7728       	223.77695      	223.7986       	223.82156      	223.83107      	223.8131       	223.82571      	223.7989       	223.79271      	223.78581      	223.75601      	
223.57541      	223.57314      	223.56131      	223.56107      	223.53456      	223.52596      	223.53668      	223.54391      	223.52663      	223.54616      	223.51845      	223.57773      	223.57132      	223.5652       	223.53053      	223.54436      	223.54266      	223.55423      	223.58716      	223.55943      	223.56389      	223.5358       	223.57152      	223.56456      	223.55646      	223.52864      	223.55136      	223.53165      	223.54582      	223.54066      	223.54669      	223.55629      	223.54222      	223.54175      	223.53615      	223.55957      	223.54556      	223.54214      	223.54782      	223.52875      	223.55592      	223.54054      	223.55573      	223.57047      	223.5798       	223.59564      	223.5662       	223.56357      	223.56595      	223.56741      	223.556        	223.56233      	223.55075      	223.54977      	223.52098      	223.50685      	223.49977      	223.5495       	223.54689      	223.5077       	223.548        	223.53957      	223.5983       	223.59532      	223.56265      	223.56306      	223.54356      	223.53386      	223.55788      	223.55638      	223.5421       	223.57204      	223.55328      	223.54784      	223.60442      	223.57048      	223.57098      	223.56859      	223.57918      	223.5744       	223.59906      	223.58098      	223.61066      	223.62892      	223.63947      	223.64967      	223.66464      	223.62616      	223.58684      	223.62044      	223.64697      	223.64853      	223.65569      	223.62233      	223.62978      	223.63054      	223.62186      	223.66171      	223.6023       	223.64272      	
223.64247      	223.65991      	223.64952      	223.61456      	223.6078       	223.58018      	223.63258      	223.6212       	223.61032      	223.613        	223.60648      	223.5817       	223.59433      	223.5911       	223.60783      	223.60533      	223.62987      	223.64919      	223.612        	223.59552      	223.59572      	223.56847      	223.58212      	223.58694      	223.59889      	223.5694       	223.60701      	223.58624      	223.56444      	223.59613      	223.56223      	223.55905      	223.55585      	223.57248      	223.55539      	223.56023      	223.56082      	223.58926      	223.54762      	223.55135      	223.56203      	223.56203      	223.54323      	223.5552       	223.51793      	223.5425       	223.52728      	223.51886      	223.55873      	223.54044      	223.55728      	223.56519      	223.52895      	223.55869      	223.5507       	223.56546      	223.54755      	223.535        	223.54935      	223.54492      	223.54381      	223.56291      	223.56007      	223.54259      	223.57492      	223.54039      	223.55898      	223.56186      	223.5633       	223.56517      	223.5505       	223.5415       	223.54079      	223.52548      	223.54509      	223.53963      	223.51222      	223.54175      	223.54047      	223.56297      	223.52081      	223.52933      	223.53575      	223.53738      	223.5301       	223.55878      	223.52637      	223.54776      	223.53394      	223.55592      	223.53726      	223.55162      	223.5202       	223.55849      	223.54564      	223.51923      	223.52899      	223.54861      	223.54443      	223.55354      	
223.75394      	223.7574       	223.8113       	223.76923      	223.79283      	223.75368      	223.75237      	223.74379      	223.81259      	223.74843      	223.77231      	223.76178      	223.78427      	223.74327      	223.743        	223.74379      	223.74367      	223.69362      	223.72804      	223.74162      	223.74554      	223.75189      	223.77945      	223.77365      	223.78128      	223.78377      	223.77025      	223.77492      	223.77325      	223.74881      	223.7663       	223.75592      	223.76424      	223.79344      	223.72958      	223.77138      	223.77328      	223.76335      	223.73015      	223.73355      	223.70425      	223.70822      	223.7211       	223.71623      	223.70824      	223.71042      	223.73454      	223.74767      	223.75626      	223.72763      	223.72104      	223.74422      	223.73158      	223.76692      	223.74686      	223.77644      	223.7659       	223.76784      	223.70842      	223.70963      	223.6839       	223.72427      	223.73991      	223.69357      	223.70245      	223.7002       	223.72108      	223.72029      	223.70033      	223.69572      	223.72638      	223.73119      	223.70801      	223.70749      	223.74437      	223.70253      	223.69069      	223.7069       	223.69211      	223.72057      	223.71832      	223.66254      	223.66832      	223.66594      	223.65985      	223.64793      	223.6438       	223.63943      	223.64992      	223.63933      	223.67491      	223.66612      	223.68983      	223.69118      	223.66339      	223.66977      	223.66943      	223.66716      	223.72336      	223.69157      	
224.17699      	224.18729      	224.14029      	224.15768      	224.15492      	224.10855      	224.09596      	224.1591       	224.17873      	224.13596      	224.12709      	224.14784      	224.11252      	224.14941      	224.1194       	224.1318       	224.12532      	224.10712      	224.12402      	224.1183       	224.10085      	224.116        	224.09125      	224.06944      	224.10179      	224.08957      	224.09401      	224.07822      	224.0971       	224.08937      	224.08493      	224.1081       	224.0791       	224.08873      	224.08519      	224.0995       	224.10262      	224.06769      	224.05724      	224.09879      	224.08658      	224.11012      	224.06924      	224.07938      	224.04245      	224.00897      	224.08286      	224.06999      	224.07074      	224.03058      	224.05028      	224.06746      	224.05197      	224.05548      	224.04254      	224.01929      	224.03816      	224.02512      	224.01726      	223.9996       	224.0092       	223.99713      	223.97731      	224.01431      	224.04544      	224.03073      	224.06477      	224.05023      	224.0661       	224.08421      	224.02594      	224.02994      	224.03981      	224.01544      	224.03151      	223.89934      	223.90216      	223.88208      	223.89307      	223.85268      	223.88417      	223.8594       	223.8766       	223.87234      	223.89366      	223.8834       	223.93636      	223.9005       	223.88669      	223.88805      	223.89397      	223.8692       	223.86952      	223.86041      	223.86653      	223.8576       	223.84784      	223.87898      	223.88756      	223.86594      	
224.25024      	224.27977      	224.30325      	224.25258      	224.20822      	224.19391      	224.23323      	224.25009      	224.26427      	224.28554      	224.23682      	224.25139      	224.22751      	224.24686      	224.24445      	224.20818      	224.22052      	224.2394       	224.26431      	224.29543      	224.26743      	224.25394      	224.26617      	224.25862      	224.25441      	224.26617      	224.24538      	224.23479      	224.25111      	224.26228      	224.24376      	224.22398      	224.23373      	224.23225      	224.2378       	224.2342       	224.24046      	224.2414       	224.25307      	224.23924      	224.22185      	224.28041      	224.29901      	224.30841      	224.29088      	224.2407       	224.24152      	224.2312       	224.24194      	224.24925      	224.29498      	224.28265      	224.24881      	224.21805      	224.20706      	224.21703      	224.19824      	224.18758      	224.20421      	224.21744      	224.2025       	224.2299       	224.20076      	224.17882      	224.1818       	224.21523      	224.19205      	224.22946      	224.21185      	224.20297      	224.19627      	224.19374      	224.21771      	224.21677      	224.19962      	224.20679      	224.18369      	224.19946      	224.19179      	224.19148      	224.19473      	224.1924       	224.21317      	224.17992      	224.20367      	224.21463      	224.20316      	224.22348      	224.21451      	224.19109      	224.24364      	224.2215       	224.21095      	224.22101      	224.21567      	224.20949      	224.23868      	224.20587      	224.17117      	224.19173      	
224.40115      	224.38858      	224.40334      	224.36887      	224.42464      	224.41049      	224.344        	224.33667      	224.43668      	224.39024      	224.3798       	224.3729       	224.34927      	224.35027      	224.36664      	224.35132      	224.34154      	224.35107      	224.37885      	224.37169      	224.37962      	224.41838      	224.42992      	224.42603      	224.39618      	224.42233      	224.4174       	224.40761      	224.41618      	224.39877      	224.43529      	224.43338      	224.43988      	224.44199      	224.43768      	224.43365      	224.41458      	224.43402      	224.43939      	224.43279      	224.44817      	224.39565      	224.41054      	224.42223      	224.40504      	224.3987       	224.40086      	224.40535      	224.3922       	224.37941      	224.41559      	224.35837      	224.41286      	224.39708      	224.41495      	224.40826      	224.39223      	224.37079      	224.38353      	224.35806      	224.38141      	224.33617      	224.35638      	224.34627      	224.32567      	224.34293      	224.34027      	224.3453       	224.36507      	224.33691      	224.35854      	224.3211       	224.32487      	224.36086      	224.3115       	224.34555      	224.37386      	224.3724       	224.39714      	224.37746      	224.37991      	224.36043      	224.32443      	224.32144      	224.34581      	224.32974      	224.29807      	224.33128      	224.32602      	224.31296      	224.32631      	224.30217      	224.31898      	224.3306       	224.3028       	224.31145      	224.3025       	224.29988      	224.3107       	224.31927      	
