# www.neaspec.com
# Scan:	 	Whitelight Imaging
# Project:	 	20251007_PS
# Description:	 	
# Date:	 	10/07/2025 16:39:17
# Scanner Center Position (X, Y):	[µm]	49.66	48.17	 
# Rotation:	[°]	0	 	 
# Scan Area (X, Y, Z):	[µm]	5.000	5.000	0.000
# Pixel Area (X, Y, Z):	[px]	100	100	1
# Interferometer Center/Distance:	[µm]	548.634	0.000	 
# Averaging:	 	1	 	 
# Integration time:	[ms]	5	 	 
# Wavenumber Scaling:	 	1.000000	 	 
# Laser Source:	 	4.5-15 µm nano-FTIR laser
# Detector:	 	R
# Target Wavelength:	[µm]	6.002	 	 
# Demodulation Mode:	 	Fourier
# Tip Frequency:	[Hz]	238,800.109	 	 
# Tip Amplitude:	[mV]	13.000	 	 
# Tapping Amplitude:	[nm]	69.706	 	 
# Modulation Frequency:	[Hz]	0.000	 	 
# Modulation Amplitude:	[mV]	0.000	 	 
# Modulation Offset:	[mV]	0.000	 	 
# Setpoint:	[%]	79.75	 	 
# Regulator (P, I, D):	 	4.206850	8.625812	1.000000
# Tip Potential:	[mV]	0.000	 	 
# M1A Scaling:	[nm/V]	0.426	 	 
# M1A Cantilever Factor:	 	1,000	 	 
# Q-Factor:	 	452.3	 	 
# Version:	 	2.1.11536.0
220.48087      	220.48851      	220.46616      	220.45709      	220.46306      	220.46628      	220.41849      	220.43536      	220.41153      	220.43967      	220.41876      	220.47928      	220.47328      	220.43735      	220.44353      	220.39981      	220.40067      	220.45312      	220.40416      	220.44366      	220.44127      	220.39845      	220.44415      	220.42865      	220.44818      	220.46878      	220.45053      	220.44122      	220.48761      	220.48167      	220.48941      	220.49954      	220.48965      	220.44867      	220.47699      	220.49696      	220.50565      	220.4794       	220.47044      	220.49094      	220.49446      	220.46227      	220.47548      	220.49089      	220.51227      	220.46614      	220.49352      	220.47438      	220.46858      	220.47388      	220.43622      	220.45209      	220.46439      	220.46231      	220.4592       	220.44778      	220.44235      	220.42108      	220.46925      	220.45074      	220.47852      	220.49529      	220.46042      	220.47104      	220.49055      	220.4241       	220.49783      	220.44415      	220.48445      	220.48717      	220.4901       	220.49869      	220.44508      	220.45009      	220.48398      	220.47485      	220.47339      	220.45432      	220.47858      	220.44496      	220.44142      	220.46564      	220.4298       	220.4293       	220.44603      	220.42018      	220.4378       	220.39656      	220.41795      	220.41946      	220.41417      	220.41537      	220.41428      	220.40688      	220.4275       	220.45827      	220.4232       	220.43015      	220.45969      	220.43549      	
220.464        	220.4483       	220.43861      	220.43813      	220.42838      	220.43384      	220.47821      	220.45009      	220.46767      	220.4628       	220.48315      	220.47298      	220.4536       	220.46214      	220.49425      	220.49237      	220.47243      	220.49149      	220.45885      	220.49944      	220.52124      	220.51207      	220.50504      	220.51004      	220.49365      	220.49916      	220.48158      	220.45346      	220.48738      	220.4917       	220.48041      	220.4536       	220.48273      	220.50221      	220.49724      	220.4868       	220.47989      	220.47006      	220.46405      	220.5112       	220.46799      	220.47234      	220.47606      	220.45126      	220.48032      	220.48119      	220.49155      	220.46918      	220.52374      	220.50192      	220.51651      	220.50418      	220.46515      	220.46385      	220.44891      	220.47076      	220.48122      	220.47179      	220.46286      	220.45103      	220.4723       	220.43788      	220.47136      	220.41745      	220.4726       	220.49236      	220.44955      	220.45763      	220.47116      	220.43309      	220.4597       	220.4437       	220.47072      	220.49298      	220.45752      	220.43301      	220.4236       	220.42032      	220.4551       	220.42857      	220.4273       	220.43948      	220.45462      	220.44037      	220.46608      	220.42516      	220.45834      	220.44315      	220.42099      	220.46466      	220.46085      	220.42546      	220.45361      	220.44064      	220.46777      	220.50642      	220.48006      	220.42636      	220.46964      	220.45615      	
220.53108      	220.54282      	220.51498      	220.50436      	220.51398      	220.53354      	220.51805      	220.5176       	220.54205      	220.54823      	220.52438      	220.54446      	220.52228      	220.53342      	220.52513      	220.56964      	220.54411      	220.54433      	220.5363       	220.52646      	220.53929      	220.53859      	220.55312      	220.58357      	220.54128      	220.61203      	220.61443      	220.60443      	220.60425      	220.58038      	220.56224      	220.57585      	220.55399      	220.5481       	220.57155      	220.56174      	220.55885      	220.55591      	220.56259      	220.59183      	220.56342      	220.55754      	220.53996      	220.54062      	220.53557      	220.56696      	220.55812      	220.54039      	220.58504      	220.55019      	220.54124      	220.53127      	220.58057      	220.52606      	220.53952      	220.51344      	220.52367      	220.55482      	220.52423      	220.5474       	220.56895      	220.56485      	220.54327      	220.56302      	220.56097      	220.55249      	220.55086      	220.56248      	220.55061      	220.56136      	220.55405      	220.53288      	220.56903      	220.52596      	220.61914      	220.6089       	220.60458      	220.59569      	220.5397       	220.57436      	220.59113      	220.577        	220.53111      	220.52612      	220.54752      	220.51848      	220.51846      	220.50998      	220.55159      	220.55516      	220.54965      	220.51605      	220.5424       	220.56253      	220.5174       	220.51295      	220.54625      	220.4944       	220.53087      	220.49416      	
220.5228       	220.5148       	220.55124      	220.5074       	220.49997      	220.54567      	220.52536      	220.53621      	220.50291      	220.49446      	220.50163      	220.46237      	220.48053      	220.51381      	220.51068      	220.50597      	220.51071      	220.5372       	220.50414      	220.53767      	220.50227      	220.50693      	220.4844       	220.52151      	220.5056       	220.54361      	220.5408       	220.5545       	220.51694      	220.5217       	220.5228       	220.51807      	220.52892      	220.5293       	220.49606      	220.53766      	220.50285      	220.52829      	220.50987      	220.5223       	220.5305       	220.51228      	220.53241      	220.52808      	220.50612      	220.48285      	220.49356      	220.5296       	220.52287      	220.48364      	220.48502      	220.4645       	220.51015      	220.50638      	220.47021      	220.51059      	220.49142      	220.49246      	220.51562      	220.56143      	220.53873      	220.53459      	220.51276      	220.54468      	220.52936      	220.49648      	220.48         	220.51459      	220.51071      	220.53201      	220.57399      	220.5446       	220.52191      	220.5513       	220.53098      	220.55893      	220.56094      	220.52419      	220.54898      	220.53296      	220.52756      	220.51694      	220.51923      	220.543        	220.54182      	220.53644      	220.51846      	220.53229      	220.52116      	220.56456      	220.53076      	220.49463      	220.5117       	220.50595      	220.52101      	220.5096       	220.50749      	220.53377      	220.51555      	220.5187       	
220.64299      	220.64923      	220.64178      	220.6118       	220.59041      	220.59927      	220.58995      	220.59755      	220.58064      	220.58157      	220.58871      	220.64488      	220.62346      	220.61586      	220.62328      	220.64224      	220.63507      	220.63832      	220.60254      	220.61984      	220.6194       	220.60165      	220.60448      	220.58081      	220.64574      	220.59352      	220.57974      	220.57535      	220.57132      	220.61313      	220.60316      	220.61214      	220.65134      	220.64816      	220.6282       	220.66188      	220.65341      	220.6693       	220.63358      	220.61896      	220.65167      	220.64545      	220.6339       	220.61075      	220.65578      	220.65419      	220.6142       	220.64052      	220.61229      	220.62401      	220.63689      	220.63206      	220.62009      	220.61073      	220.60977      	220.59645      	220.6022       	220.60863      	220.61697      	220.59903      	220.61801      	220.60349      	220.6286       	220.61383      	220.6058       	220.59082      	220.60393      	220.55104      	220.58055      	220.57608      	220.61499      	220.60971      	220.61041      	220.61293      	220.59691      	220.55972      	220.55194      	220.5442       	220.57031      	220.57675      	220.5828       	220.62158      	220.60384      	220.59227      	220.59497      	220.60599      	220.6526       	220.65544      	220.65439      	220.6323       	220.65228      	220.62267      	220.59587      	220.61249      	220.62657      	220.58635      	220.57536      	220.60582      	220.58113      	220.58754      	
220.58594      	220.60065      	220.57698      	220.54378      	220.57501      	220.60802      	220.58667      	220.58096      	220.61624      	220.63553      	220.60188      	220.59116      	220.63681      	220.62106      	220.6159       	220.63797      	220.6775       	220.64056      	220.6168       	220.62451      	220.6419       	220.60072      	220.60419      	220.615        	220.63898      	220.62917      	220.6157       	220.60547      	220.57884      	220.59633      	220.57855      	220.59337      	220.6285       	220.64168      	220.63556      	220.62256      	220.64859      	220.62775      	220.6247       	220.59511      	220.57997      	220.58017      	220.60956      	220.58669      	220.60147      	220.56044      	220.55716      	220.61066      	220.5979       	220.65169      	220.60953      	220.59744      	220.63744      	220.60158      	220.6115       	220.6526       	220.60626      	220.65388      	220.62897      	220.70299      	220.6664       	220.66905      	220.63728      	220.67247      	220.68468      	220.68806      	220.65456      	220.67892      	220.68132      	220.66095      	220.66048      	220.6512       	220.65688      	220.68344      	220.69427      	220.69522      	220.69978      	220.7048       	220.69566      	220.66502      	220.67616      	220.71475      	220.68498      	220.70688      	220.71701      	220.70174      	220.72443      	220.71516      	220.68295      	220.70213      	220.69298      	220.68668      	220.7152       	220.70981      	220.69461      	220.7136       	220.7102       	220.71898      	220.72572      	220.70938      	
220.81418      	220.8216       	220.80688      	220.77626      	220.79335      	220.8054       	220.81064      	220.81516      	220.81898      	220.8135       	220.83636      	220.81982      	220.83725      	220.8524       	220.84952      	220.8436       	220.84384      	220.84236      	220.84048      	220.83678      	220.83327      	220.83893      	220.82649      	220.84178      	220.82486      	220.84373      	220.84285      	220.82108      	220.83034      	220.82071      	220.8118       	220.82635      	220.8155       	220.82599      	220.8339       	220.83253      	220.84181      	220.81453      	220.81786      	220.80971      	220.80678      	220.79848      	220.8265       	220.8733       	220.8491       	220.81595      	220.83904      	220.83862      	220.83176      	220.82155      	220.81633      	220.82022      	220.81984      	220.82349      	220.83586      	220.858        	220.84862      	220.8487       	220.87901      	220.85489      	220.91461      	220.84435      	220.83795      	220.84683      	220.85834      	220.83269      	220.8392       	220.8299       	220.8537       	220.86876      	220.88043      	220.83342      	220.8339       	220.84035      	220.82104      	220.82663      	220.84825      	220.82411      	220.81126      	220.83727      	220.84392      	220.84508      	220.84906      	220.87936      	220.85612      	220.88463      	220.87755      	220.91322      	220.87523      	220.86084      	220.85094      	220.8497       	220.85085      	220.82722      	220.78107      	220.82983      	220.815        	220.83113      	220.83527      	220.83798      	
220.89395      	220.89755      	220.88576      	220.87527      	220.89288      	220.85538      	220.83334      	220.88486      	220.85231      	220.85182      	220.84818      	220.85619      	220.83665      	220.87392      	220.84302      	220.8714       	220.87352      	220.88719      	220.88522      	220.88206      	220.87779      	220.86786      	220.8863       	220.87717      	220.85077      	220.88983      	220.88795      	220.88295      	220.88474      	220.87906      	220.8666       	220.8701       	220.83255      	220.87991      	220.87743      	220.88193      	220.88817      	220.8864       	220.862        	220.83461      	220.8602       	220.87624      	220.87001      	220.87177      	220.8674       	220.8851       	220.86125      	220.88443      	220.90593      	220.89616      	220.8959       	220.87166      	220.86879      	220.85873      	220.85098      	220.85077      	220.85228      	220.83649      	220.85419      	220.91518      	220.85492      	220.83546      	220.87605      	220.8475       	220.83197      	220.88353      	220.8867       	220.85968      	220.86876      	220.86209      	220.85751      	220.85623      	220.86151      	220.85947      	220.86362      	220.82635      	220.86073      	220.85677      	220.86313      	220.91667      	220.92448      	220.84103      	220.90944      	220.87831      	220.86147      	220.85646      	220.87021      	220.87091      	220.85953      	220.85477      	220.88431      	220.87796      	220.88748      	220.8767       	220.86632      	220.85979      	220.85568      	220.83731      	220.8557       	220.84361      	
220.77585      	220.82048      	220.80272      	220.80379      	220.80576      	220.8242       	220.82162      	220.78427      	220.80927      	220.80507      	220.81044      	220.8093       	220.80275      	220.815        	220.79971      	220.79129      	220.8238       	220.80026      	220.80865      	220.81512      	220.77277      	220.78876      	220.79387      	220.75522      	220.7669       	220.79353      	220.79034      	220.7946       	220.78363      	220.80127      	220.74344      	220.80731      	220.76869      	220.77518      	220.78928      	220.75658      	220.78323      	220.76584      	220.76929      	220.76462      	220.79997      	220.79994      	220.76169      	220.73923      	220.7741       	220.77098      	220.78523      	220.77197      	220.76279      	220.81885      	220.78917      	220.75755      	220.7681       	220.75043      	220.7568       	220.78485      	220.75821      	220.76129      	220.78711      	220.76732      	220.7951       	220.77097      	220.76637      	220.79214      	220.75748      	220.75417      	220.74887      	220.78937      	220.77548      	220.80737      	220.79858      	220.78531      	220.7924       	220.76749      	220.81264      	220.82529      	220.8028       	220.7619       	220.78592      	220.77704      	220.80072      	220.77826      	220.77765      	220.7893       	220.77374      	220.84814      	220.83356      	220.79703      	220.81445      	220.83716      	220.79355      	220.80093      	220.81471      	220.79556      	220.81326      	220.83217      	220.84457      	220.82693      	220.81989      	220.8126       	
220.80719      	220.81036      	220.79135      	220.77084      	220.78046      	220.81093      	220.80116      	220.78175      	220.77078      	220.77419      	220.7744       	220.77814      	220.81683      	220.8666       	220.84642      	220.83759      	220.86392      	220.84984      	220.8443       	220.83185      	220.79524      	220.79752      	220.79442      	220.80202      	220.79367      	220.76295      	220.80313      	220.788        	220.79391      	220.80884      	220.76642      	220.79799      	220.82741      	220.81525      	220.82333      	220.8515       	220.81834      	220.81284      	220.81895      	220.83604      	220.8033       	220.83449      	220.83592      	220.81415      	220.83447      	220.8045       	220.81744      	220.81781      	220.82346      	220.8312       	220.84547      	220.8352       	220.84035      	220.88544      	220.84148      	220.83298      	220.82315      	220.81912      	220.86313      	220.84367      	220.86569      	220.86685      	220.859        	220.82782      	220.81606      	220.82582      	220.80585      	220.8156       	220.82346      	220.77588      	220.80934      	220.81606      	220.80121      	220.80232      	220.80371      	220.8113       	220.81721      	220.79468      	220.76994      	220.81728      	220.80914      	220.77383      	220.79343      	220.77425      	220.7871       	220.81003      	220.77249      	220.76678      	220.76889      	220.78432      	220.79259      	220.8143       	220.82404      	220.83049      	220.82446      	220.83206      	220.88019      	220.87428      	220.80775      	220.8045       	
220.82689      	220.82762      	220.84828      	220.83911      	220.8186       	220.81868      	220.80971      	220.81567      	220.81526      	220.81151      	220.82913      	220.83514      	220.83852      	220.80336      	220.83119      	220.814        	220.82364      	220.85213      	220.80469      	220.82285      	220.78192      	220.78851      	220.78392      	220.78459      	220.75778      	220.79225      	220.78645      	220.7848       	220.7606       	220.7942       	220.76508      	220.8015       	220.76407      	220.7825       	220.76668      	220.75269      	220.73485      	220.78207      	220.74269      	220.73032      	220.74115      	220.70338      	220.72292      	220.75577      	220.7197       	220.73714      	220.74951      	220.70834      	220.77254      	220.7732       	220.75903      	220.76573      	220.80084      	220.76584      	220.8276       	220.78342      	220.76634      	220.75287      	220.74693      	220.72255      	220.73016      	220.71466      	220.7434       	220.7173       	220.6988       	220.73544      	220.70808      	220.70775      	220.71959      	220.7233       	220.74724      	220.72647      	220.73828      	220.72223      	220.71683      	220.72617      	220.73659      	220.7434       	220.73438      	220.72972      	220.75865      	220.76134      	220.73239      	220.75282      	220.72023      	220.71512      	220.72282      	220.7224       	220.7621       	220.72942      	220.74878      	220.7351       	220.73392      	220.75783      	220.7432       	220.73874      	220.73715      	220.72818      	220.74033      	220.73245      	
220.75089      	220.74745      	220.7556       	220.76256      	220.75674      	220.75072      	220.74918      	220.7754       	220.84627      	220.7898       	220.79042      	220.78212      	220.74168      	220.75584      	220.72662      	220.78146      	220.76099      	220.75665      	220.7579       	220.75209      	220.75342      	220.74379      	220.74187      	220.77303      	220.74037      	220.74309      	220.7711       	220.79535      	220.73755      	220.75282      	220.76424      	220.80135      	220.73993      	220.76788      	220.77939      	220.7325       	220.73119      	220.75157      	220.76384      	220.75902      	220.763        	220.75043      	220.74442      	220.77272      	220.76761      	220.7622       	220.7786       	220.76837      	220.77336      	220.73045      	220.73381      	220.74754      	220.76082      	220.7386       	220.7422       	220.70923      	220.72415      	220.73088      	220.70271      	220.72258      	220.72464      	220.70602      	220.70131      	220.72649      	220.73453      	220.74554      	220.7244       	220.71568      	220.72803      	220.71121      	220.71492      	220.72691      	220.73007      	220.70627      	220.71178      	220.7329       	220.73486      	220.74078      	220.74466      	220.73828      	220.74184      	220.70729      	220.70142      	220.66518      	220.6712       	220.70387      	220.67984      	220.6796       	220.70688      	220.71384      	220.70688      	220.69211      	220.69972      	220.72394      	220.67804      	220.69914      	220.72289      	220.69907      	220.69238      	220.7133       	
220.77354      	220.78632      	220.7893       	220.78174      	220.76848      	220.75644      	220.74724      	220.76573      	220.81387      	220.80647      	220.80743      	220.80145      	220.81631      	220.84554      	220.81313      	220.8292       	220.8202       	220.8298       	220.82439      	220.80331      	220.80817      	220.78809      	220.79297      	220.80463      	220.80655      	220.7733       	220.80078      	220.78629      	220.78531      	220.79752      	220.77727      	220.81674      	220.7811       	220.77634      	220.78271      	220.76369      	220.75409      	220.77756      	220.81665      	220.80086      	220.77406      	220.77272      	220.80005      	220.76471      	220.78746      	220.78082      	220.7829       	220.78651      	220.7984       	220.77817      	220.81537      	220.8396       	220.79819      	220.81403      	220.81795      	220.81755      	220.77249      	220.75325      	220.75659      	220.74431      	220.75455      	220.76341      	220.72426      	220.75438      	220.7239       	220.75723      	220.72073      	220.71858      	220.73131      	220.73587      	220.7189       	220.7475       	220.73738      	220.7036       	220.73964      	220.7241       	220.72879      	220.73875      	220.72537      	220.72447      	220.73575      	220.74194      	220.72093      	220.79356      	220.738        	220.73964      	220.7312       	220.71494      	220.74796      	220.7885       	220.77406      	220.77237      	220.73483      	220.7469       	220.809        	220.74698      	220.76717      	220.78883      	220.75844      	220.75504      	
220.81664      	220.87222      	220.87347      	220.8436       	220.80466      	220.80887      	220.83072      	220.79813      	220.81964      	220.8436       	220.8082       	220.8134       	220.82297      	220.8421       	220.82072      	220.8112       	220.78738      	220.7938       	220.83218      	220.79657      	220.82205      	220.8194       	220.82828      	220.81589      	220.80032      	220.80411      	220.83415      	220.80176      	220.84113      	220.85033      	220.8738       	220.82584      	220.84164      	220.8488       	220.84027      	220.81871      	220.84146      	220.81638      	220.83562      	220.83855      	220.84059      	220.85129      	220.82835      	220.79884      	220.84222      	220.81935      	220.8194       	220.8384       	220.82443      	220.80328      	220.83856      	220.84654      	220.83733      	220.83209      	220.83641      	220.82098      	220.82843      	220.82399      	220.8227       	220.83234      	220.82587      	220.80862      	220.80186      	220.7936       	220.7931       	220.81473      	220.79562      	220.81088      	220.7908       	220.7901       	220.79494      	220.80441      	220.7742       	220.79652      	220.80394      	220.79001      	220.76993      	220.81844      	220.84773      	220.80629      	220.7735       	220.78745      	220.77995      	220.81177      	220.80597      	220.76767      	220.8095       	220.81322      	220.78827      	220.80493      	220.79524      	220.77403      	220.76189      	220.75404      	220.80165      	220.81633      	220.8325       	220.81325      	220.839        	220.82585      	
220.88417      	220.88992      	220.85696      	220.82086      	220.82114      	220.79948      	220.86342      	220.83319      	220.84161      	220.86717      	220.87021      	220.86972      	220.86227      	220.87273      	220.84195      	220.87387      	220.8452       	220.88083      	220.87769      	220.85532      	220.84459      	220.84804      	220.85146      	220.84537      	220.86551      	220.84006      	220.86183      	220.854        	220.85934      	220.83282      	220.85446      	220.86783      	220.87173      	220.86708      	220.88379      	220.88744      	220.88829      	220.86107      	220.88747      	220.87814      	220.88109      	220.89394      	220.88783      	220.88303      	220.8824       	220.89513      	220.89021      	220.86986      	220.90852      	220.87723      	220.91106      	220.89633      	220.94174      	220.88345      	220.91798      	220.9172       	220.8786       	220.91301      	220.9144       	220.87599      	220.89395      	220.93637      	220.91748      	220.9143       	220.92227      	220.86998      	220.90138      	220.92253      	220.8954       	220.90706      	220.91405      	220.94864      	220.92995      	220.91307      	220.90147      	220.94542      	220.90546      	220.89821      	220.91486      	220.93216      	220.90178      	220.91193      	220.90305      	220.91095      	220.90158      	220.91823      	220.91748      	220.92667      	220.92896      	220.91838      	220.92795      	220.92052      	220.85887      	220.9129       	220.93382      	220.8878       	220.90715      	220.86935      	220.89825      	220.90346      	
220.8661       	220.87238      	220.85533      	220.85541      	220.84946      	220.86613      	220.87057      	220.89049      	220.88846      	220.87831      	220.86948      	220.8763       	220.87677      	220.92033      	220.90422      	220.89761      	220.8953       	220.8819       	220.8872       	220.88632      	220.86792      	220.88567      	220.85399      	220.89         	220.87784      	220.89972      	220.86497      	220.8751       	220.90884      	220.85617      	220.90793      	220.93164      	220.9388       	220.93277      	220.88425      	220.90573      	220.92204      	220.89348      	220.90546      	220.93097      	220.91254      	220.92079      	220.93866      	220.91151      	220.91403      	220.94586      	220.90201      	220.92264      	220.9157       	220.89795      	220.91675      	220.90317      	220.92697      	220.90332      	220.88754      	220.90364      	220.88857      	220.90349      	220.9166       	220.8906       	220.89566      	220.89748      	220.8779       	220.9011       	220.91783      	220.93887      	220.92467      	220.92279      	220.91615      	220.90315      	220.921        	220.90378      	220.89113      	220.9313       	220.90054      	220.93823      	220.93788      	220.90308      	220.93651      	220.93451      	220.91017      	220.9112       	220.90807      	220.90189      	220.88939      	220.90665      	220.897        	220.8785       	220.88797      	220.88441      	220.91568      	220.91843      	220.89066      	220.91612      	220.90094      	220.88852      	220.91829      	220.91544      	220.8818       	220.91884      	
221.00279      	221.01912      	221.00204      	220.97897      	220.98392      	220.99213      	220.9948       	221.00229      	221.04514      	221.02385      	220.99696      	221.00809      	220.99228      	221.03801      	221.01654      	220.98192      	221.02936      	221.03206      	221.06595      	221.05016      	221.02843      	221.0447       	221.03177      	221.0206       	221.01913      	221.05716      	221.03903      	221.02606      	221.01895      	221.03003      	221.0398       	221.02686      	221.03387      	221.04764      	221.036        	221.04929      	221.03513      	221.0533       	221.00584      	221.00641      	221.0223       	220.99617      	220.9812       	221.01657      	221.02713      	221.00668      	220.98372      	221.00511      	221.02634      	221.0109       	221.00269      	221.03273      	221.00813      	221.0126       	221.02554      	221.01749      	221.02072      	221.03575      	220.98729      	220.98796      	220.99521      	220.99152      	220.97552      	220.9956       	221.01419      	221.04123      	221.02652      	220.99487      	221.02594      	221.02078      	221.0113       	221.01613      	221.02051      	220.98642      	221.01236      	221.055        	221.00233      	220.99843      	221.01566      	221.03029      	221.03038      	221.0159       	220.9932       	221.02303      	221.02081      	221.02565      	221.03604      	221.06696      	221.04631      	221.04681      	221.08759      	221.0895       	221.0527       	221.02261      	221.0382       	221.02304      	221.03058      	221.02515      	221.03778      	221.02652      	
220.99634      	221.0043       	221.01585      	221.00133      	221.0109       	221.00958      	220.9885       	221.01271      	221.0022       	221.03035      	221.00339      	220.9918       	221.02507      	221.0038       	221.00758      	220.99803      	220.99536      	221.00514      	221.01248      	221.01106      	221.01091      	220.99435      	221.02562      	221.01334      	220.98634      	221.01906      	221.01144      	221.02682      	221.02939      	221.00125      	220.99136      	221.00827      	221.02638      	221.00658      	221.00706      	221.05734      	221.08112      	221.07635      	221.0773       	221.04987      	221.05252      	221.03622      	221.08179      	221.09085      	221.07603      	221.06993      	221.0705       	221.07762      	221.06276      	221.05096      	221.01172      	221.02043      	221.04152      	221.07394      	221.09123      	221.03662      	221.06644      	221.05797      	221.08075      	221.06967      	221.06802      	221.08472      	221.06776      	221.04898      	221.06142      	221.05894      	221.1168       	221.07935      	221.05045      	221.01205      	221.01994      	221.07938      	221.08977      	221.09023      	221.09532      	221.0744       	221.05048      	221.05348      	221.04103      	221.03093      	221.04102      	221.06032      	221.03494      	221.03693      	221.08751      	221.06029      	221.02243      	221.03119      	221.0572       	221.02335      	221.05804      	221.05272      	221.05357      	221.0358       	221.02074      	221.03044      	221.0397       	221.01047      	221.02428      	221.04442      	
221.06961      	221.04597      	221.02165      	221.05309      	221.03554      	221.05746      	221.02982      	221.07535      	221.07074      	221.08995      	221.04987      	221.02785      	221.05785      	221.04898      	221.04404      	221.10538      	221.0887       	221.05988      	221.0677       	221.06451      	221.07089      	221.10089      	221.04843      	221.08034      	221.0476       	221.1114       	221.06633      	221.0913       	221.11058      	221.12259      	221.11794      	221.10744      	221.0797       	221.09784      	221.0525       	221.10631      	221.09256      	221.07674      	221.06187      	221.09215      	221.05826      	221.09738      	221.07135      	221.06813      	221.06252      	221.06187      	221.0681       	221.0724       	221.05618      	221.0652       	221.06932      	221.06674      	221.06268      	221.08316      	221.08284      	221.10306      	221.08545      	221.07416      	221.08138      	221.06155      	221.0508       	221.06184      	221.06941      	221.06407      	221.10669      	221.05182      	221.0768       	221.04434      	221.04422      	221.0716       	221.09447      	221.1007       	221.08398      	221.09888      	221.10474      	221.10107      	221.1242       	221.10818      	221.08514      	221.04507      	221.06456      	221.04468      	221.08408      	221.08528      	221.10483      	221.09695      	221.05687      	221.06854      	221.08708      	221.1253       	221.08179      	221.07301      	221.0991       	221.08765      	221.11159      	221.10626      	221.1175       	221.09842      	221.09451      	221.09137      	
221.15477      	221.12906      	221.13947      	221.1627       	221.20663      	221.17044      	221.1393       	221.14423      	221.18048      	221.16405      	221.16689      	221.1638       	221.1403       	221.20206      	221.22032      	221.13713      	221.16612      	221.13332      	221.11223      	221.12303      	221.09653      	221.09996      	221.12248      	221.12085      	221.10309      	221.17621      	221.10532      	221.1122       	221.12796      	221.09402      	221.13736      	221.13068      	221.14561      	221.16412      	221.13649      	221.11993      	221.18286      	221.19281      	221.19016      	221.19504      	221.14069      	221.10696      	221.14377      	221.15517      	221.14429      	221.15346      	221.12663      	221.12674      	221.14272      	221.12929      	221.13426      	221.09839      	221.11726      	221.13591      	221.09259      	221.12534      	221.10431      	221.12624      	221.09384      	221.0773       	221.11426      	221.04276      	221.10449      	221.08481      	221.11688      	221.11287      	221.13957      	221.11311      	221.0992       	221.09071      	221.11182      	221.1098       	221.15697      	221.15025      	221.16835      	221.1216       	221.14656      	221.12807      	221.11136      	221.11264      	221.11496      	221.08957      	221.10428      	221.15016      	221.11783      	221.11288      	221.09993      	221.13118      	221.15768      	221.12274      	221.13176      	221.1391       	221.0997       	221.09953      	221.14         	221.11098      	221.11798      	221.12088      	221.11246      	221.1319       	
221.2385       	221.21588      	221.21573      	221.22133      	221.22046      	221.21603      	221.20256      	221.21027      	221.21564      	221.22884      	221.20468      	221.21463      	221.26147      	221.232        	221.25662      	221.24         	221.22528      	221.24162      	221.19247      	221.21248      	221.19334      	221.20123      	221.20253      	221.19406      	221.2206       	221.23366      	221.21883      	221.26187      	221.26321      	221.21844      	221.26129      	221.23807      	221.25684      	221.24254      	221.24284      	221.25198      	221.26488      	221.27728      	221.28543      	221.30989      	221.3165       	221.27032      	221.24286      	221.2696       	221.26456      	221.2698       	221.27605      	221.27867      	221.2857       	221.25398      	221.29697      	221.26674      	221.29544      	221.2381       	221.28119      	221.29836      	221.31097      	221.3051       	221.28944      	221.31363      	221.25534      	221.29799      	221.32935      	221.33308      	221.29308      	221.28249      	221.32394      	221.29663      	221.33318      	221.33609      	221.31143      	221.32895      	221.2858       	221.31212      	221.3234       	221.33813      	221.29802      	221.32542      	221.3142       	221.35153      	221.32367      	221.33202      	221.35336      	221.30031      	221.37149      	221.35117      	221.32721      	221.36002      	221.34546      	221.35484      	221.33691      	221.34654      	221.35947      	221.36034      	221.32916      	221.3323       	221.34605      	221.37662      	221.37152      	221.34694      	
221.40382      	221.40329      	221.41275      	221.41867      	221.41676      	221.42781      	221.40948      	221.3992       	221.46672      	221.47269      	221.46194      	221.4595       	221.43729      	221.44545      	221.41652      	221.42535      	221.43121      	221.43391      	221.4098       	221.43735      	221.43497      	221.42975      	221.43977      	221.44778      	221.44408      	221.4344       	221.46117      	221.4263       	221.42586      	221.44522      	221.45677      	221.45216      	221.44699      	221.44264      	221.44589      	221.47266      	221.45306      	221.42873      	221.43512      	221.44342      	221.42838      	221.4346       	221.4711       	221.45071      	221.4614       	221.47226      	221.46165      	221.45712      	221.4423       	221.47055      	221.4754       	221.42421      	221.4586       	221.44005      	221.43076      	221.44505      	221.46419      	221.47656      	221.43814      	221.44968      	221.45134      	221.4588       	221.47235      	221.42838      	221.48293      	221.47264      	221.47688      	221.46231      	221.45085      	221.46246      	221.4632       	221.48137      	221.45125      	221.47931      	221.43188      	221.47214      	221.4225       	221.49626      	221.50261      	221.49072      	221.44664      	221.48822      	221.50562      	221.44937      	221.45844      	221.48773      	221.48456      	221.47224      	221.47076      	221.44662      	221.47412      	221.48839      	221.48544      	221.49586      	221.47371      	221.49808      	221.50423      	221.4702       	221.45052      	221.50002      	
221.59996      	221.59543      	221.59076      	221.56398      	221.57945      	221.59735      	221.5828       	221.57722      	221.54852      	221.56609      	221.53223      	221.54135      	221.5338       	221.52277      	221.52542      	221.53757      	221.56517      	221.57596      	221.5464       	221.54755      	221.52832      	221.53123      	221.54259      	221.564        	221.5416       	221.55663      	221.56439      	221.56909      	221.5171       	221.56097      	221.5359       	221.55997      	221.52612      	221.51276      	221.5205       	221.52292      	221.51855      	221.5456       	221.53539      	221.59488      	221.58485      	221.56691      	221.58401      	221.57591      	221.54688      	221.56895      	221.52997      	221.58157      	221.56577      	221.59763      	221.61513      	221.62143      	221.58147      	221.56712      	221.51695      	221.53592      	221.53888      	221.5122       	221.52013      	221.52426      	221.54402      	221.56941      	221.59413      	221.57005      	221.5661       	221.5805       	221.5795       	221.57289      	221.59752      	221.56007      	221.59514      	221.59903      	221.55533      	221.56047      	221.55363      	221.59569      	221.56581      	221.53326      	221.55264      	221.56406      	221.55118      	221.5504       	221.55148      	221.58727      	221.5524       	221.56285      	221.60284      	221.58485      	221.55275      	221.52798      	221.58287      	221.57547      	221.56349      	221.58925      	221.57156      	221.55852      	221.56772      	221.5455       	221.57521      	221.57216      	
221.55911      	221.56212      	221.52986      	221.53467      	221.54584      	221.62906      	221.59796      	221.5896       	221.57968      	221.57538      	221.54744      	221.61949      	221.56879      	221.562        	221.57112      	221.58032      	221.59116      	221.59407      	221.56924      	221.55235      	221.5535       	221.57506      	221.58324      	221.57628      	221.57584      	221.5939       	221.59781      	221.58444      	221.58876      	221.5595       	221.59048      	221.56003      	221.5538       	221.58095      	221.57114      	221.57375      	221.59442      	221.62035      	221.56381      	221.53687      	221.55626      	221.5849       	221.58763      	221.53564      	221.56253      	221.57318      	221.58531      	221.57863      	221.62775      	221.60028      	221.62973      	221.59937      	221.58304      	221.58302      	221.57762      	221.56805      	221.58116      	221.58258      	221.55133      	221.57         	221.57217      	221.5641       	221.5662       	221.58969      	221.55743      	221.56427      	221.55594      	221.56673      	221.573        	221.57567      	221.55748      	221.56566      	221.55612      	221.5878       	221.59866      	221.58131      	221.54787      	221.56105      	221.57867      	221.56808      	221.58487      	221.5612       	221.55273      	221.59605      	221.5513       	221.539        	221.58864      	221.55023      	221.5621       	221.56442      	221.55203      	221.55887      	221.55402      	221.58202      	221.58344      	221.58594      	221.56195      	221.55331      	221.5965       	221.5762       	
221.61482      	221.60526      	221.56755      	221.53302      	221.53786      	221.5373       	221.5469       	221.53069      	221.51741      	221.5015       	221.48839      	221.48918      	221.48828      	221.527        	221.50645      	221.51321      	221.4861       	221.52577      	221.54118      	221.53522      	221.53166      	221.53517      	221.50844      	221.48828      	221.53221      	221.49696      	221.48874      	221.49283      	221.50685      	221.50552      	221.51222      	221.51524      	221.50229      	221.487        	221.48022      	221.51126      	221.51886      	221.51326      	221.51085      	221.50945      	221.52643      	221.53224      	221.50829      	221.51132      	221.51636      	221.52016      	221.5342       	221.55048      	221.49974      	221.50702      	221.52081      	221.50917      	221.53185      	221.5576       	221.51328      	221.53091      	221.51953      	221.53467      	221.55585      	221.56984      	221.55614      	221.52444      	221.5382       	221.5571       	221.51427      	221.51228      	221.51039      	221.48709      	221.49031      	221.51137      	221.50522      	221.50246      	221.50278      	221.49323      	221.52469      	221.53061      	221.54404      	221.51869      	221.49127      	221.5066       	221.5692       	221.53668      	221.51414      	221.50514      	221.50398      	221.51212      	221.5091       	221.5232       	221.49045      	221.52458      	221.48723      	221.51344      	221.517        	221.52391      	221.5257       	221.55275      	221.5755       	221.55022      	221.53899      	221.57538      	
221.57712      	221.58115      	221.64682      	221.61862      	221.5941       	221.60968      	221.61008      	221.60637      	221.57878      	221.62067      	221.65111      	221.6011       	221.59084      	221.6016       	221.59653      	221.60693      	221.62418      	221.62039      	221.60452      	221.55931      	221.62271      	221.62811      	221.61159      	221.63118      	221.62875      	221.61037      	221.60826      	221.61864      	221.58089      	221.59128      	221.5914       	221.6007       	221.61594      	221.6263       	221.6349       	221.61053      	221.58531      	221.54759      	221.55835      	221.57343      	221.5574       	221.56874      	221.57607      	221.58849      	221.57248      	221.60902      	221.59955      	221.56137      	221.58621      	221.5902       	221.60846      	221.61813      	221.5922       	221.63467      	221.5798       	221.59627      	221.59564      	221.60089      	221.60442      	221.60353      	221.58803      	221.56958      	221.61595      	221.58391      	221.56898      	221.62355      	221.58743      	221.59091      	221.62405      	221.61224      	221.5782       	221.66275      	221.60564      	221.61119      	221.60895      	221.56934      	221.59511      	221.59674      	221.61473      	221.60335      	221.5964       	221.60818      	221.60541      	221.61116      	221.62015      	221.66103      	221.61185      	221.61986      	221.58661      	221.61188      	221.56773      	221.57463      	221.5792       	221.59726      	221.61441      	221.61908      	221.62361      	221.63553      	221.5935       	221.60704      	
221.63942      	221.64206      	221.67578      	221.67636      	221.65086      	221.65366      	221.64218      	221.6455       	221.62816      	221.61621      	221.63922      	221.63216      	221.65599      	221.62961      	221.63348      	221.62979      	221.65671      	221.64284      	221.67332      	221.6481       	221.6483       	221.64655      	221.63176      	221.67644      	221.73158      	221.66144      	221.66605      	221.67122      	221.64557      	221.65768      	221.65636      	221.66476      	221.65887      	221.63264      	221.66846      	221.66275      	221.68156      	221.6983       	221.67986      	221.67766      	221.68532      	221.70038      	221.69167      	221.6849       	221.68549      	221.67316      	221.64682      	221.64821      	221.6597       	221.6627       	221.62856      	221.65326      	221.6586       	221.67409      	221.6714       	221.65698      	221.667        	221.67693      	221.69374      	221.68951      	221.68343      	221.71085      	221.70541      	221.69923      	221.6652       	221.65854      	221.69298      	221.66112      	221.64261      	221.65294      	221.65137      	221.65793      	221.66147      	221.64062      	221.67906      	221.66852      	221.70663      	221.69106      	221.7005       	221.65152      	221.64406      	221.66164      	221.66684      	221.70282      	221.69684      	221.63951      	221.65642      	221.67361      	221.64421      	221.64748      	221.6854       	221.65067      	221.70396      	221.68214      	221.66974      	221.6919       	221.66089      	221.63974      	221.65315      	221.66936      	
221.63281      	221.6183       	221.63191      	221.62282      	221.59769      	221.58609      	221.58527      	221.58691      	221.57413      	221.57977      	221.59796      	221.5993       	221.60568      	221.59743      	221.58717      	221.56256      	221.63101      	221.5954       	221.56729      	221.59724      	221.57362      	221.61768      	221.57224      	221.60205      	221.59686      	221.56882      	221.55226      	221.58192      	221.57802      	221.55835      	221.59508      	221.59435      	221.59622      	221.59097      	221.56883      	221.58005      	221.58432      	221.5655       	221.58627      	221.60085      	221.59113      	221.56854      	221.60045      	221.5893       	221.60306      	221.60861      	221.56644      	221.58522      	221.57191      	221.58539      	221.58746      	221.55255      	221.59554      	221.63124      	221.62088      	221.6039       	221.62126      	221.60764      	221.58748      	221.59644      	221.60417      	221.63376      	221.60468      	221.5969       	221.64203      	221.62604      	221.62042      	221.61952      	221.62375      	221.6116       	221.6341       	221.63402      	221.65636      	221.63689      	221.60626      	221.65347      	221.635        	221.62091      	221.57414      	221.57164      	221.56448      	221.58209      	221.56615      	221.58034      	221.55003      	221.56479      	221.5961       	221.57428      	221.57516      	221.58667      	221.57559      	221.58464      	221.5608       	221.58499      	221.59146      	221.57936      	221.5441       	221.58328      	221.59473      	221.56706      	
221.58356      	221.584        	221.61732      	221.62694      	221.60074      	221.59183      	221.59691      	221.57242      	221.57976      	221.54437      	221.56511      	221.55762      	221.5647       	221.59009      	221.5903       	221.62572      	221.58632      	221.61447      	221.61816      	221.58905      	221.60098      	221.58717      	221.56776      	221.6032       	221.6084       	221.61978      	221.62115      	221.637        	221.6428       	221.61412      	221.60597      	221.63208      	221.63857      	221.65182      	221.63585      	221.66316      	221.66852      	221.65575      	221.621        	221.65266      	221.63966      	221.60272      	221.59831      	221.66965      	221.6109       	221.63011      	221.61888      	221.61223      	221.61212      	221.59665      	221.57494      	221.58382      	221.58209      	221.6091       	221.61896      	221.69089      	221.67532      	221.65599      	221.63087      	221.64064      	221.61057      	221.6288       	221.60684      	221.56898      	221.59831      	221.61035      	221.58879      	221.59328      	221.60983      	221.65794      	221.62946      	221.60397      	221.61646      	221.57187      	221.58398      	221.60529      	221.61642      	221.62842      	221.61276      	221.61833      	221.6336       	221.601        	221.62845      	221.63396      	221.6284       	221.61781      	221.61795      	221.59897      	221.6018       	221.60312      	221.61098      	221.5857       	221.6088       	221.61017      	221.57974      	221.60419      	221.58453      	221.5998       	221.58542      	221.56796      	
221.55809      	221.54904      	221.53264      	221.54745      	221.56595      	221.511        	221.53214      	221.56398      	221.55989      	221.52232      	221.5451       	221.55032      	221.55849      	221.53035      	221.5685       	221.55563      	221.55312      	221.58661      	221.54897      	221.55641      	221.6019       	221.59003      	221.61499      	221.6008       	221.55399      	221.55142      	221.52888      	221.57347      	221.593        	221.5453       	221.55482      	221.57147      	221.55397      	221.59227      	221.5576       	221.54036      	221.53166      	221.5699       	221.54422      	221.56676      	221.58636      	221.58727      	221.5641       	221.61905      	221.57074      	221.57191      	221.56381      	221.57013      	221.54665      	221.55988      	221.59294      	221.61581      	221.56331      	221.57379      	221.56638      	221.57104      	221.58408      	221.55899      	221.5143       	221.58862      	221.5398       	221.56729      	221.55779      	221.54832      	221.55936      	221.58449      	221.54604      	221.5637       	221.5588       	221.56435      	221.60359      	221.53452      	221.53336      	221.54987      	221.56866      	221.55292      	221.54153      	221.56522      	221.55588      	221.54967      	221.55301      	221.54747      	221.5537       	221.5202       	221.52838      	221.54596      	221.52145      	221.556        	221.54774      	221.54327      	221.531        	221.55283      	221.52731      	221.58514      	221.51907      	221.55856      	221.52878      	221.50658      	221.50673      	221.511        	
221.61098      	221.61757      	221.62224      	221.62614      	221.62769      	221.64192      	221.65782      	221.64838      	221.71873      	221.67453      	221.62267      	221.63322      	221.637        	221.6439       	221.6459       	221.63222      	221.66064      	221.61185      	221.67511      	221.65945      	221.63821      	221.62514      	221.65297      	221.59212      	221.64499      	221.6287       	221.63217      	221.62943      	221.62842      	221.64966      	221.64565      	221.63185      	221.62988      	221.64885      	221.65453      	221.6487       	221.62466      	221.63922      	221.64754      	221.63206      	221.62663      	221.63129      	221.69408      	221.68863      	221.7038       	221.68092      	221.68825      	221.68205      	221.6686       	221.67606      	221.69073      	221.64154      	221.68878      	221.6579       	221.62376      	221.66576      	221.66734      	221.67307      	221.67212      	221.65012      	221.67548      	221.63809      	221.68024      	221.6146       	221.65202      	221.63754      	221.62654      	221.66048      	221.65706      	221.64064      	221.65942      	221.63388      	221.68878      	221.68373      	221.621        	221.69423      	221.6853       	221.67528      	221.66153      	221.67856      	221.64194      	221.65138      	221.67162      	221.62279      	221.65814      	221.69644      	221.653        	221.69339      	221.6933       	221.67992      	221.70355      	221.69383      	221.685        	221.69476      	221.66902      	221.65118      	221.68124      	221.7097       	221.68669      	221.66522      	
221.7429       	221.74716      	221.78012      	221.7892       	221.76788      	221.74545      	221.74503      	221.7582       	221.81535      	221.78899      	221.76784      	221.78069      	221.75293      	221.75131      	221.77847      	221.70609      	221.74586      	221.74037      	221.74684      	221.75342      	221.7579       	221.75252      	221.76001      	221.74213      	221.78598      	221.76364      	221.74138      	221.75763      	221.74582      	221.73859      	221.72916      	221.72731      	221.74062      	221.74121      	221.7264       	221.74127      	221.76964      	221.76735      	221.76207      	221.77124      	221.71246      	221.71191      	221.75526      	221.7204       	221.7584       	221.70665      	221.72923      	221.72649      	221.72119      	221.71167      	221.72635      	221.7465       	221.70282      	221.73021      	221.73337      	221.7425       	221.72598      	221.69754      	221.69376      	221.65779      	221.6633       	221.6966       	221.68661      	221.64113      	221.65823      	221.69452      	221.68239      	221.70462      	221.70221      	221.72827      	221.72014      	221.71823      	221.72487      	221.73845      	221.72078      	221.75856      	221.7551       	221.7225       	221.72398      	221.72272      	221.7278       	221.70314      	221.71481      	221.7059       	221.75464      	221.73447      	221.7678       	221.69589      	221.72119      	221.71588      	221.77336      	221.76611      	221.7033       	221.72166      	221.72821      	221.72762      	221.73761      	221.71129      	221.71346      	221.72675      	
221.76776      	221.77145      	221.74966      	221.73175      	221.738        	221.80125      	221.8192       	221.79321      	221.79207      	221.8021       	221.77336      	221.76668      	221.76758      	221.75687      	221.74734      	221.78989      	221.78238      	221.7827       	221.77675      	221.77081      	221.74948      	221.78038      	221.73712      	221.77832      	221.7711       	221.74962      	221.7853       	221.79115      	221.75394      	221.78757      	221.75868      	221.7457       	221.77623      	221.79631      	221.78719      	221.76883      	221.80145      	221.78752      	221.77264      	221.78896      	221.77074      	221.77766      	221.81888      	221.79037      	221.80647      	221.80818      	221.82478      	221.84206      	221.85399      	221.84195      	221.83879      	221.81927      	221.79958      	221.82738      	221.819        	221.82822      	221.83229      	221.78952      	221.76743      	221.79866      	221.78322      	221.81175      	221.77817      	221.82701      	221.8178       	221.83765      	221.83488      	221.82591      	221.8384       	221.80655      	221.84657      	221.8485       	221.8541       	221.84148      	221.82907      	221.81349      	221.85701      	221.88371      	221.88403      	221.87857      	221.88966      	221.85725      	221.90398      	221.87207      	221.89186      	221.85872      	221.89168      	221.89882      	221.90384      	221.8932       	221.8737       	221.85075      	221.90877      	221.83147      	221.88548      	221.83469      	221.8403       	221.83415      	221.84975      	221.89005      	
221.79858      	221.78807      	221.81299      	221.81912      	221.82298      	221.78539      	221.77516      	221.78757      	221.78978      	221.80344      	221.78448      	221.7902       	221.78662      	221.8033       	221.81444      	221.80142      	221.7907       	221.7859       	221.79176      	221.80379      	221.7982       	221.79321      	221.77982      	221.80995      	221.78702      	221.80252      	221.76622      	221.77277      	221.77518      	221.76373      	221.76863      	221.77911      	221.7736       	221.75797      	221.78677      	221.78767      	221.76718      	221.78966      	221.8063       	221.79054      	221.80898      	221.82292      	221.80069      	221.79515      	221.77847      	221.82764      	221.80527      	221.79417      	221.78532      	221.80412      	221.7915       	221.78728      	221.82715      	221.82184      	221.81154      	221.81111      	221.81528      	221.85783      	221.81529      	221.85506      	221.84042      	221.84071      	221.8498       	221.82057      	221.86554      	221.80702      	221.8436       	221.82121      	221.78654      	221.78806      	221.81639      	221.78403      	221.8173       	221.82559      	221.80035      	221.82253      	221.7936       	221.80435      	221.83176      	221.8098       	221.82544      	221.81558      	221.81062      	221.77765      	221.82787      	221.8279       	221.84532      	221.81715      	221.77159      	221.76         	221.76682      	221.8098       	221.81607      	221.80325      	221.82736      	221.83595      	221.83278      	221.81259      	221.81778      	221.81532      	
221.8164       	221.78925      	221.80084      	221.78842      	221.8032       	221.7756       	221.75449      	221.74577      	221.76929      	221.75241      	221.74098      	221.75505      	221.71579      	221.70932      	221.73082      	221.68102      	221.73566      	221.75241      	221.73381      	221.73854      	221.73074      	221.72452      	221.73413      	221.7259       	221.73584      	221.72478      	221.75548      	221.73978      	221.74144      	221.72418      	221.7389       	221.74438      	221.76112      	221.74626      	221.73773      	221.73431      	221.71335      	221.71222      	221.70378      	221.74994      	221.74197      	221.6957       	221.75293      	221.72421      	221.70677      	221.74574      	221.72769      	221.73854      	221.72865      	221.71527      	221.74277      	221.74413      	221.73721      	221.68626      	221.72284      	221.74625      	221.69083      	221.73172      	221.71596      	221.7286       	221.716        	221.72287      	221.72887      	221.71149      	221.70988      	221.72185      	221.70189      	221.70029      	221.7056       	221.74324      	221.7081       	221.73022      	221.73744      	221.70868      	221.7257       	221.72418      	221.73235      	221.73276      	221.74908      	221.74805      	221.7554       	221.78181      	221.80437      	221.8047       	221.77875      	221.7829       	221.81186      	221.7704       	221.79083      	221.76662      	221.78148      	221.7693       	221.77289      	221.76224      	221.80428      	221.76486      	221.75946      	221.80484      	221.77606      	221.76741      	
221.72482      	221.72743      	221.69156      	221.68475      	221.71353      	221.72726      	221.70204      	221.69284      	221.73643      	221.7335       	221.75357      	221.72879      	221.7304       	221.72884      	221.74625      	221.68393      	221.7066       	221.7409       	221.70819      	221.72339      	221.73672      	221.73082      	221.72382      	221.71661      	221.68605      	221.70256      	221.67484      	221.68631      	221.71921      	221.72089      	221.70645      	221.69524      	221.70969      	221.71785      	221.72688      	221.74292      	221.7089       	221.70184      	221.71756      	221.69794      	221.78003      	221.7715       	221.71832      	221.70905      	221.67523      	221.67253      	221.6665       	221.76042      	221.73306      	221.71405      	221.71306      	221.71454      	221.72112      	221.6827       	221.70961      	221.70181      	221.72049      	221.70076      	221.73517      	221.70924      	221.71791      	221.7382       	221.72942      	221.71046      	221.71086      	221.7215       	221.71144      	221.69862      	221.68495      	221.70193      	221.7177       	221.67685      	221.6915       	221.71844      	221.69197      	221.70255      	221.72813      	221.70549      	221.70638      	221.73634      	221.7361       	221.74156      	221.72757      	221.75383      	221.75308      	221.73026      	221.75136      	221.75455      	221.80067      	221.75519      	221.7257       	221.72655      	221.7676       	221.77686      	221.74838      	221.7386       	221.73909      	221.71632      	221.7457       	221.7119       	
221.72482      	221.71507      	221.71906      	221.7294       	221.74191      	221.76674      	221.79433      	221.76102      	221.75868      	221.75528      	221.78795      	221.80826      	221.79353      	221.80525      	221.79755      	221.75969      	221.74585      	221.73347      	221.72458      	221.72485      	221.74542      	221.71725      	221.73918      	221.7477       	221.74136      	221.75505      	221.72777      	221.73975      	221.72849      	221.71439      	221.73941      	221.7587       	221.75163      	221.73758      	221.72314      	221.72826      	221.72859      	221.7457       	221.72153      	221.71059      	221.71419      	221.76024      	221.72604      	221.7092       	221.69937      	221.73402      	221.70753      	221.72768      	221.77971      	221.75075      	221.74821      	221.74066      	221.74692      	221.72818      	221.73595      	221.69528      	221.70616      	221.72772      	221.70467      	221.70692      	221.72224      	221.70328      	221.71616      	221.68651      	221.69661      	221.67604      	221.71191      	221.7389       	221.73033      	221.70804      	221.72403      	221.6954       	221.69296      	221.73674      	221.708        	221.72487      	221.7001       	221.71248      	221.72882      	221.72145      	221.6937       	221.70898      	221.72836      	221.6936       	221.70866      	221.7137       	221.70062      	221.72061      	221.68353      	221.72762      	221.72311      	221.70662      	221.7278       	221.74054      	221.72247      	221.75261      	221.74588      	221.71202      	221.69644      	221.72382      	
221.775        	221.79141      	221.80649      	221.79587      	221.78258      	221.79056      	221.79466      	221.78865      	221.77615      	221.77367      	221.81544      	221.78159      	221.76929      	221.7991       	221.78827      	221.80006      	221.78363      	221.7959       	221.78792      	221.7741       	221.77652      	221.83113      	221.79103      	221.82986      	221.82419      	221.8078       	221.78865      	221.79335      	221.78752      	221.78069      	221.75531      	221.75131      	221.76048      	221.78233      	221.78098      	221.81004      	221.7981       	221.76498      	221.80328      	221.79056      	221.77945      	221.78368      	221.75471      	221.74234      	221.76057      	221.75833      	221.7512       	221.74965      	221.7632       	221.77977      	221.79506      	221.74341      	221.7503       	221.77156      	221.76248      	221.75429      	221.76427      	221.72113      	221.7399       	221.72444      	221.7202       	221.74904      	221.73488      	221.70914      	221.71353      	221.71861      	221.69873      	221.7599       	221.70972      	221.70352      	221.71132      	221.70729      	221.75182      	221.75919      	221.7229       	221.73178      	221.75018      	221.72662      	221.71811      	221.72629      	221.75229      	221.70038      	221.72064      	221.71672      	221.75511      	221.73032      	221.77563      	221.76816      	221.78038      	221.71974      	221.75388      	221.74432      	221.70668      	221.7525       	221.73827      	221.76236      	221.73363      	221.76155      	221.78757      	221.7779       	
221.7816       	221.76219      	221.7857       	221.80081      	221.78366      	221.78719      	221.79893      	221.76068      	221.81163      	221.77336      	221.8246       	221.76031      	221.78114      	221.77968      	221.79628      	221.7611       	221.78938      	221.75365      	221.79477      	221.80545      	221.82837      	221.76755      	221.7814       	221.75485      	221.82384      	221.78908      	221.76709      	221.75743      	221.7577       	221.79274      	221.7949       	221.83258      	221.7889       	221.80748      	221.80069      	221.81491      	221.84828      	221.80304      	221.8029       	221.77264      	221.79176      	221.7779       	221.79054      	221.77594      	221.77663      	221.79959      	221.77219      	221.80453      	221.77902      	221.80608      	221.78798      	221.80988      	221.77425      	221.79913      	221.77914      	221.76956      	221.76889      	221.80325      	221.76639      	221.78743      	221.79338      	221.78395      	221.74802      	221.79605      	221.79137      	221.82834      	221.85341      	221.80486      	221.77225      	221.80573      	221.78903      	221.7937       	221.78046      	221.78717      	221.78815      	221.77847      	221.80322      	221.81557      	221.79723      	221.80035      	221.8134       	221.7901       	221.79826      	221.82202      	221.8301       	221.81322      	221.86182      	221.84157      	221.8348       	221.8208       	221.8194       	221.83026      	221.85243      	221.80423      	221.85522      	221.84451      	221.8301       	221.85037      	221.88016      	221.84462      	
221.85867      	221.85773      	221.84816      	221.84271      	221.86281      	221.86981      	221.8412       	221.83926      	221.8384       	221.8523       	221.82484      	221.8109       	221.80856      	221.83156      	221.82446      	221.82742      	221.84088      	221.84271      	221.82945      	221.84239      	221.86618      	221.89723      	221.83992      	221.8456       	221.87413      	221.82674      	221.83963      	221.8439       	221.83887      	221.85262      	221.81473      	221.87915      	221.83195      	221.83112      	221.84958      	221.83482      	221.86871      	221.86945      	221.84244      	221.86005      	221.82872      	221.86005      	221.86705      	221.83498      	221.82738      	221.83661      	221.82301      	221.83748      	221.82623      	221.83781      	221.8306       	221.80202      	221.83665      	221.83488      	221.85306      	221.82228      	221.78836      	221.82921      	221.84457      	221.82204      	221.82205      	221.80118      	221.82463      	221.8096       	221.8071       	221.84895      	221.81593      	221.8239       	221.80313      	221.7999       	221.8016       	221.80707      	221.81842      	221.79933      	221.79523      	221.81487      	221.79681      	221.8298       	221.8614       	221.85216      	221.80746      	221.8326       	221.80736      	221.8342       	221.81113      	221.87155      	221.8828       	221.84496      	221.84026      	221.811        	221.83852      	221.80453      	221.83104      	221.80678      	221.80336      	221.81442      	221.83434      	221.82089      	221.8074       	221.8338       	
221.84969      	221.8253       	221.82152      	221.81036      	221.80934      	221.82472      	221.84715      	221.82216      	221.83234      	221.83958      	221.86116      	221.84042      	221.83104      	221.81985      	221.82259      	221.8128       	221.7916       	221.81389      	221.79726      	221.81895      	221.8321       	221.85902      	221.81227      	221.79259      	221.79276      	221.8185       	221.79642      	221.82408      	221.81798      	221.80142      	221.79948      	221.80885      	221.75531      	221.81483      	221.80942      	221.79495      	221.82837      	221.78673      	221.8099       	221.81114      	221.81691      	221.81387      	221.82266      	221.79556      	221.83698      	221.79713      	221.8268       	221.80124      	221.84302      	221.8218       	221.84006      	221.84425      	221.79274      	221.80746      	221.81296      	221.81874      	221.82074      	221.77937      	221.82384      	221.79126      	221.80453      	221.77557      	221.79443      	221.8089       	221.80386      	221.81183      	221.84734      	221.77203      	221.78477      	221.79666      	221.78427      	221.8047       	221.79085      	221.78456      	221.78554      	221.78482      	221.81117      	221.78282      	221.79843      	221.8242       	221.7965       	221.79665      	221.79315      	221.81229      	221.8245       	221.82187      	221.80089      	221.8359       	221.7688       	221.78204      	221.79237      	221.82364      	221.82498      	221.80325      	221.82536      	221.81662      	221.78697      	221.81268      	221.7985       	221.80022      	
221.84619      	221.85333      	221.83846      	221.8285       	221.8207       	221.83287      	221.86203      	221.8623       	221.8299       	221.82425      	221.82901      	221.82327      	221.8457       	221.81544      	221.82306      	221.83528      	221.83205      	221.82005      	221.80965      	221.83641      	221.81142      	221.84581      	221.84207      	221.84605      	221.83913      	221.86111      	221.8641       	221.83987      	221.83922      	221.83527      	221.847        	221.85251      	221.84512      	221.85524      	221.86171      	221.88004      	221.87816      	221.85406      	221.85791      	221.84645      	221.87177      	221.86426      	221.8447       	221.85675      	221.87538      	221.84708      	221.88062      	221.86594      	221.82811      	221.81927      	221.8593       	221.90399      	221.84805      	221.83282      	221.83539      	221.87297      	221.8714       	221.86124      	221.8728       	221.8381       	221.87779      	221.86792      	221.845        	221.85663      	221.85764      	221.84813      	221.87991      	221.87955      	221.85864      	221.86246      	221.85919      	221.8823       	221.8365       	221.85675      	221.93205      	221.89423      	221.89313      	221.9317       	221.92209      	221.93736      	221.91042      	221.91519      	221.90997      	221.8657       	221.882        	221.90283      	221.8632       	221.86575      	221.85114      	221.89706      	221.91615      	221.9287       	221.9099       	221.90321      	221.90973      	221.8998       	221.9376       	221.90213      	221.93504      	221.93855      	
222.05925      	222.04498      	222.06915      	222.10057      	222.10521      	222.0883       	222.09091      	222.07611      	222.09459      	222.11115      	222.09305      	222.07811      	222.07742      	222.10133      	222.08359      	222.09479      	222.07033      	222.11705      	222.0711       	222.077        	222.09161      	222.0714       	222.08733      	222.08803      	222.07498      	222.09068      	222.09145      	222.02736      	222.02847      	222.01979      	222.03732      	222.05898      	222.02533      	222.03253      	222.03192      	222.08806      	222.08595      	222.06552      	222.08182      	222.04726      	222.05077      	222.07544      	222.08954      	222.04391      	222.06564      	222.04214      	222.0466       	222.07153      	222.09627      	222.10248      	222.04883      	222.03033      	222.0745       	222.03525      	222.06313      	222.04935      	222.0665       	222.05621      	222.05461      	222.06674      	222.06248      	222.04744      	222.07986      	222.09096      	222.1181       	222.0995       	222.10213      	222.1163       	222.12729      	222.1114       	222.09741      	222.13138      	222.10887      	222.11461      	222.11618      	222.12428      	222.09026      	222.11093      	222.11606      	222.1079       	222.12628      	222.14708      	222.10704      	222.12883      	222.1284       	222.1425       	222.11449      	222.12221      	222.14081      	222.16388      	222.1268       	222.1015       	222.09206      	222.09459      	222.1094       	222.10744      	222.11287      	222.12962      	222.08284      	222.04303      	
222.1461       	222.15509      	222.14626      	222.13596      	222.13943      	222.14499      	222.14543      	222.1425       	222.14944      	222.1286       	222.13344      	222.15411      	222.14183      	222.15195      	222.1533       	222.15877      	222.14561      	222.17123      	222.17805      	222.13069      	222.14224      	222.13022      	222.11612      	222.14104      	222.16437      	222.17899      	222.13689      	222.14404      	222.17398      	222.16342      	222.15692      	222.162        	222.15591      	222.17091      	222.16145      	222.16075      	222.1504       	222.16437      	222.14438      	222.17366      	222.16585      	222.17819      	222.1848       	222.16412      	222.14427      	222.19699      	222.2099       	222.20721      	222.18654      	222.11485      	222.14787      	222.16222      	222.1555       	222.15096      	222.18156      	222.21861      	222.14655      	222.19603      	222.1832       	222.21101      	222.18028      	222.17668      	222.18228      	222.18124      	222.18808      	222.18639      	222.16722      	222.17912      	222.17218      	222.15929      	222.14526      	222.1749       	222.16302      	222.22647      	222.16945      	222.19748      	222.20375      	222.15323      	222.15063      	222.17384      	222.16635      	222.16496      	222.14227      	222.18855      	222.18805      	222.17537      	222.1588       	222.17091      	222.22423      	222.18219      	222.15472      	222.14906      	222.15639      	222.16818      	222.16664      	222.16342      	222.18378      	222.17847      	222.17992      	222.17         	
222.16992      	222.16832      	222.17555      	222.14984      	222.1478       	222.17104      	222.15514      	222.13048      	222.14928      	222.11766      	222.09923      	222.09926      	222.09576      	222.08705      	222.11426      	222.06241      	222.11908      	222.07614      	222.09842      	222.15012      	222.11908      	222.11537      	222.10529      	222.09334      	222.1039       	222.0986       	222.0871       	222.08879      	222.0887       	222.08241      	222.08754      	222.07309      	222.06477      	222.03317      	222.07805      	222.07274      	222.10254      	222.10172      	222.07962      	222.07497      	222.09105      	222.09491      	222.11351      	222.10194      	222.09717      	222.09256      	222.10255      	222.10799      	222.07243      	222.0712       	222.03903      	222.08554      	222.07307      	222.07007      	222.08116      	222.06737      	222.06805      	222.049        	222.06651      	222.0883       	222.1157       	222.04543      	222.06136      	222.05771      	222.07712      	222.04645      	222.06834      	222.04642      	222.10555      	222.09105      	222.11826      	222.09132      	222.1067       	222.07968      	222.12093      	222.11687      	222.08528      	222.06662      	222.07445      	222.06705      	222.08876      	222.06204      	222.08055      	222.09999      	222.10638      	222.181        	222.13615      	222.11835      	222.13655      	222.11807      	222.06676      	222.08092      	222.08713      	222.09898      	222.08649      	222.07257      	222.06686      	222.06592      	222.12067      	222.07014      	
222.02579      	222.02235      	222.01698      	222.0178       	222.02469      	222.02477      	222.0104       	222.00986      	222.02264      	222.00543      	222.0005       	222.00844      	222.0066       	221.98866      	222.00568      	222.0054       	221.99681      	222.0262       	222.00111      	221.9953       	221.98422      	222.02922      	221.987        	222.0003       	222.00034      	221.99225      	221.97926      	222.01816      	222.00438      	222.01219      	221.99438      	222.01248      	222.01202      	222.01732      	222.00462      	222.0051       	222.00275      	222.00885      	222.01923      	222.00003      	222.02077      	222.024        	222.03282      	222.00345      	222.05461      	222.0449       	222.01971      	222.04167      	222.03052      	222.01613      	222.02415      	222.00626      	222.02615      	222.04474      	222.00739      	222.02663      	222.03157      	222.0279       	221.98941      	221.98312      	221.99045      	222.0236       	222.03885      	222.02419      	222.04086      	222.03874      	222.02243      	222.02817      	222.00563      	222.00024      	222.00299      	222.02707      	222.06633      	222.03334      	222.01544      	222.0218       	222.0192       	222.01398      	221.99365      	222.00928      	222.00919      	222.0108       	222.01561      	221.99452      	222.02606      	222.00545      	222.00691      	222.00687      	222.00496      	222.00397      	221.97586      	221.97179      	222.02817      	222.01874      	222.01009      	222.0184       	221.99442      	222.01074      	222.00877      	221.98717      	
222.18918      	222.19618      	222.18314      	222.19354      	222.17352      	222.15468      	222.1783       	222.22287      	222.20091      	222.17291      	222.16933      	222.19897      	222.13972      	222.19856      	222.17691      	222.1682       	222.17076      	222.15622      	222.19342      	222.1477       	222.15317      	222.16245      	222.19897      	222.17253      	222.19992      	222.27184      	222.24602      	222.24945      	222.24586      	222.23558      	222.21405      	222.2317       	222.21732      	222.20232      	222.18541      	222.21886      	222.20023      	222.20172      	222.22174      	222.21042      	222.25934      	222.1901       	222.18921      	222.20139      	222.20302      	222.19997      	222.17325      	222.18222      	222.19199      	222.20834      	222.19891      	222.204        	222.26141      	222.21042      	222.20142      	222.2178       	222.21022      	222.21127      	222.18642      	222.19412      	222.20824      	222.21135      	222.2076       	222.19333      	222.18748      	222.23717      	222.20369      	222.19989      	222.1757       	222.18831      	222.21564      	222.18185      	222.2012       	222.21942      	222.17921      	222.20807      	222.2058       	222.2046       	222.21274      	222.2102       	222.21858      	222.19563      	222.1858       	222.20622      	222.17935      	222.18427      	222.18973      	222.21428      	222.19333      	222.25415      	222.22946      	222.2005       	222.2015       	222.2116       	222.20882      	222.23798      	222.21474      	222.20818      	222.20993      	222.18602      	
222.29584      	222.3121       	222.33412      	222.31639      	222.32095      	222.31195      	222.30202      	222.26874      	222.30809      	222.31058      	222.29965      	222.33293      	222.30032      	222.31346      	222.2929       	222.31601      	222.26157      	222.27399      	222.29607      	222.31903      	222.33434      	222.33252      	222.31711      	222.2991       	222.33246      	222.3369       	222.32324      	222.3303       	222.31851      	222.34215      	222.37889      	222.30765      	222.4035       	222.35446      	222.35965      	222.34694      	222.34604      	222.34616      	222.31073      	222.32156      	222.34027      	222.32321      	222.3198       	222.35422      	222.34871      	222.3765       	222.33333      	222.31602      	222.30925      	222.30841      	222.30437      	222.33136      	222.34238      	222.31372      	222.32799      	222.35138      	222.32047      	222.37323      	222.3571       	222.3575       	222.35216      	222.36642      	222.3327       	222.34035      	222.3585       	222.36003      	222.32428      	222.34418      	222.31535      	222.31967      	222.32999      	222.33594      	222.34015      	222.31676      	222.33629      	222.28947      	222.30762      	222.30226      	222.29349      	222.31534      	222.29645      	222.3257       	222.32175      	222.30045      	222.30905      	222.3335       	222.30128      	222.3408       	222.30716      	222.29103      	222.31062      	222.33237      	222.33057      	222.3417       	222.34978      	222.30672      	222.34755      	222.34093      	222.33986      	222.33653      	
222.49245      	222.50809      	222.51546      	222.49535      	222.50516      	222.493        	222.47633      	222.48988      	222.47281      	222.50432      	222.46649      	222.49753      	222.48811      	222.50986      	222.48624      	222.48317      	222.50935      	222.49567      	222.4922       	222.47987      	222.49171      	222.48561      	222.47813      	222.48901      	222.49472      	222.49124      	222.5301       	222.51036      	222.46263      	222.49496      	222.5121       	222.4819       	222.48776      	222.48647      	222.5021       	222.47762      	222.53337      	222.50829      	222.5408       	222.51376      	222.49902      	222.50279      	222.5311       	222.53036      	222.50694      	222.52396      	222.55655      	222.52888      	222.55289      	222.53621      	222.56665      	222.56047      	222.51988      	222.55785      	222.57913      	222.56738      	222.55965      	222.5529       	222.53711      	222.5673       	222.55687      	222.55716      	222.55077      	222.56258      	222.58195      	222.54063      	222.53217      	222.56358      	222.53087      	222.52197      	222.55295      	222.5296       	222.51039      	222.5488       	222.52765      	222.55246      	222.5511       	222.52         	222.56828      	222.51382      	222.54875      	222.54787      	222.54924      	222.50804      	222.57715      	222.5244       	222.53613      	222.52818      	222.55037      	222.52066      	222.51291      	222.51297      	222.51506      	222.53442      	222.53964      	222.5206       	222.5307       	222.48776      	222.51076      	222.52644      	
222.728        	222.67873      	222.62408      	222.60904      	222.6189       	222.62567      	222.63327      	222.64964      	222.65709      	222.66197      	222.65457      	222.64247      	222.65022      	222.66327      	222.64806      	222.64224      	222.61081      	222.66434      	222.64066      	222.64981      	222.63055      	222.65611      	222.61057      	222.6445       	222.64513      	222.6715       	222.6377       	222.63622      	222.6529       	222.65659      	222.65591      	222.65225      	222.6577       	222.68533      	222.73404      	222.65636      	222.66145      	222.64578      	222.6408       	222.66307      	222.62376      	222.6401       	222.6649       	222.66162      	222.6556       	222.66151      	222.68666      	222.6657       	222.65746      	222.62752      	222.67064      	222.66731      	222.64537      	222.68527      	222.65433      	222.64207      	222.65756      	222.6499       	222.69183      	222.65414      	222.64597      	222.63428      	222.67245      	222.65298      	222.63246      	222.67307      	222.66605      	222.70078      	222.6671       	222.6499       	222.67255      	222.63983      	222.6242       	222.68478      	222.64764      	222.63493      	222.65405      	222.63574      	222.6716       	222.68768      	222.65683      	222.65878      	222.66452      	222.65291      	222.655        	222.65372      	222.63802      	222.67741      	222.66682      	222.73756      	222.71349      	222.68443      	222.66095      	222.65958      	222.65749      	222.66154      	222.67886      	222.68704      	222.69135      	222.71313      	
222.71556      	222.73587      	222.72643      	222.72873      	222.75055      	222.76239      	222.74269      	222.75966      	222.72112      	222.73192      	222.72746      	222.71783      	222.71306      	222.7097       	222.72519      	222.72256      	222.70941      	222.74171      	222.69556      	222.69493      	222.6985       	222.68181      	222.71117      	222.70815      	222.69385      	222.69489      	222.70497      	222.67659      	222.7109       	222.70734      	222.7308       	222.69334      	222.70312      	222.71332      	222.71663      	222.7355       	222.77058      	222.73924      	222.71092      	222.69572      	222.72482      	222.72313      	222.72281      	222.71608      	222.71013      	222.71689      	222.75235      	222.71463      	222.70335      	222.70407      	222.69026      	222.70407      	222.74962      	222.70567      	222.69109      	222.70604      	222.73004      	222.69418      	222.71921      	222.71744      	222.72096      	222.70818      	222.68639      	222.6854       	222.68436      	222.71552      	222.74474      	222.69116      	222.71101      	222.69458      	222.6848       	222.73537      	222.73445      	222.71274      	222.67886      	222.70575      	222.6993       	222.72488      	222.73817      	222.72704      	222.69858      	222.69269      	222.7103       	222.72108      	222.71481      	222.69472      	222.69406      	222.70769      	222.71295      	222.72556      	222.75148      	222.7128       	222.69229      	222.72476      	222.7281       	222.72478      	222.76276      	222.74869      	222.80005      	222.77162      	
222.8482       	222.84676      	222.84744      	222.82648      	222.82465      	222.79446      	222.8108       	222.8091       	222.79218      	222.83015      	222.8125       	222.79498      	222.82669      	222.81735      	222.83365      	222.79436      	222.78636      	222.8235       	222.81198      	222.79916      	222.81         	222.80925      	222.81357      	222.81393      	222.81104      	222.82909      	222.8162       	222.84433      	222.82791      	222.82626      	222.8727       	222.84076      	222.89125      	222.84271      	222.85231      	222.81047      	222.81688      	222.82707      	222.83246      	222.83453      	222.84406      	222.8185       	222.82007      	222.82684      	222.82724      	222.82942      	222.80345      	222.78876      	222.79247      	222.79129      	222.8396       	222.81062      	222.8532       	222.83221      	222.81111      	222.80922      	222.79974      	222.81891      	222.82321      	222.80664      	222.80315      	222.78687      	222.81526      	222.7829       	222.80812      	222.81113      	222.77328      	222.79022      	222.80956      	222.77066      	222.79436      	222.79013      	222.78769      	222.77618      	222.78467      	222.79941      	222.78174      	222.80127      	222.79372      	222.74167      	222.77594      	222.74733      	222.77875      	222.76585      	222.76405      	222.80116      	222.75418      	222.78717      	222.76523      	222.76015      	222.7713       	222.77936      	222.80867      	222.77924      	222.79932      	222.78786      	222.78539      	222.76967      	222.78093      	222.8122       	
222.87015      	222.88101      	222.89774      	222.86603      	222.8641       	222.86824      	222.86697      	222.85048      	222.8423       	222.84909      	222.82146      	222.83876      	222.81728      	222.86066      	222.81943      	222.82498      	222.81207      	222.86751      	222.85538      	222.82521      	222.8161       	222.82877      	222.83298      	222.81706      	222.83601      	222.83958      	222.82846      	222.81752      	222.79485      	222.83144      	222.80014      	222.78288      	222.80983      	222.80756      	222.80374      	222.80348      	222.8392       	222.80556      	222.77574      	222.7985       	222.8103       	222.77927      	222.79666      	222.83266      	222.81624      	222.82126      	222.82547      	222.8177       	222.80724      	222.80374      	222.8108       	222.79877      	222.81546      	222.79642      	222.83376      	222.86496      	222.8233       	222.8047       	222.85541      	222.84406      	222.80121      	222.79361      	222.78046      	222.75356      	222.76297      	222.78749      	222.79645      	222.75041      	222.77768      	222.81508      	222.79031      	222.82379      	222.78639      	222.79744      	222.79272      	222.80751      	222.73656      	222.77464      	222.74501      	222.7828       	222.7775       	222.7665       	222.73416      	222.75519      	222.76474      	222.7745       	222.78343      	222.76212      	222.7532       	222.76462      	222.77737      	222.75334      	222.77188      	222.76448      	222.77992      	222.78418      	222.76799      	222.7527       	222.75198      	222.77223      	
222.81476      	222.79947      	222.76888      	222.7438       	222.76408      	222.77267      	222.73975      	222.74316      	222.76715      	222.76181      	222.79112      	222.82904      	222.83011      	222.82726      	222.74576      	222.80148      	222.76155      	222.7493       	222.796        	222.7861       	222.79422      	222.81117      	222.7739       	222.81203      	222.79869      	222.79068      	222.80916      	222.79718      	222.74805      	222.75798      	222.76898      	222.8253       	222.75137      	222.80656      	222.8178       	222.80553      	222.80247      	222.7876       	222.78456      	222.76773      	222.7864       	222.78848      	222.78278      	222.76898      	222.73355      	222.77171      	222.74352      	222.79335      	222.76106      	222.7794       	222.77182      	222.78313      	222.72707      	222.75896      	222.7803       	222.73434      	222.77159      	222.7495       	222.74773      	222.73598      	222.73074      	222.73793      	222.7402       	222.75017      	222.73898      	222.75424      	222.7115       	222.75746      	222.73451      	222.73186      	222.73553      	222.75644      	222.74684      	222.71947      	222.76413      	222.70502      	222.7609       	222.74034      	222.72458      	222.7232       	222.7771       	222.7313       	222.70348      	222.72806      	222.71533      	222.72215      	222.72379      	222.71286      	222.75006      	222.69995      	222.71071      	222.74602      	222.74445      	222.78421      	222.70795      	222.7357       	222.73509      	222.71924      	222.70857      	222.73805      	
222.70706      	222.69933      	222.72646      	222.72917      	222.71405      	222.71191      	222.71623      	222.70181      	222.68394      	222.70184      	222.68732      	222.69612      	222.67007      	222.70384      	222.69493      	222.68538      	222.70132      	222.6792       	222.68167      	222.66699      	222.7028       	222.68227      	222.69705      	222.69345      	222.70961      	222.69138      	222.70285      	222.71931      	222.69936      	222.67624      	222.67026      	222.67084      	222.67543      	222.67323      	222.70193      	222.67416      	222.66064      	222.69034      	222.70224      	222.67857      	222.66414      	222.70323      	222.66953      	222.66881      	222.68143      	222.66124      	222.67097      	222.66351      	222.69205      	222.73137      	222.6865       	222.66057      	222.68459      	222.67612      	222.64388      	222.67741      	222.6805       	222.68126      	222.67897      	222.68777      	222.65973      	222.68227      	222.65237      	222.64911      	222.63689      	222.6138       	222.65959      	222.64186      	222.66005      	222.63841      	222.684        	222.69154      	222.6682       	222.64304      	222.6423       	222.64642      	222.63905      	222.61453      	222.66498      	222.63722      	222.65869      	222.69565      	222.6468       	222.64272      	222.64513      	222.64453      	222.66396      	222.63573      	222.7026       	222.66008      	222.65047      	222.64658      	222.62692      	222.65994      	222.66396      	222.6511       	222.63638      	222.63992      	222.65657      	222.63655      	
222.63217      	222.63649      	222.63045      	222.60184      	222.62277      	222.59969      	222.59682      	222.61882      	222.56845      	222.64168      	222.5992       	222.57364      	222.57324      	222.58226      	222.61127      	222.59006      	222.60687      	222.59871      	222.55951      	222.5985       	222.57706      	222.6016       	222.58185      	222.60509      	222.56184      	222.58214      	222.5975       	222.61058      	222.6044       	222.58884      	222.6219       	222.61636      	222.56941      	222.56346      	222.59398      	222.58473      	222.57237      	222.55771      	222.59396      	222.59781      	222.56622      	222.54343      	222.55295      	222.56107      	222.55617      	222.55412      	222.58192      	222.57167      	222.57677      	222.55609      	222.57907      	222.56305      	222.5628       	222.55542      	222.58318      	222.55438      	222.58472      	222.58604      	222.59131      	222.59482      	222.59229      	222.60472      	222.59912      	222.57985      	222.58739      	222.56976      	222.57896      	222.55559      	222.5598       	222.58656      	222.55447      	222.56313      	222.57533      	222.56381      	222.55078      	222.51398      	222.54964      	222.54825      	222.53163      	222.52982      	222.52834      	222.52635      	222.5499       	222.54446      	222.51137      	222.51035      	222.52545      	222.54208      	222.49623      	222.53648      	222.5087       	222.53998      	222.52382      	222.55019      	222.52664      	222.49219      	222.51105      	222.5231       	222.50734      	222.53842      	
222.56755      	222.5425       	222.55528      	222.56288      	222.55528      	222.5462       	222.5726       	222.54932      	222.59114      	222.56656      	222.53897      	222.57233      	222.56557      	222.55687      	222.5803       	222.52469      	222.55807      	222.57396      	222.57121      	222.5756       	222.59573      	222.59262      	222.57242      	222.60727      	222.58894      	222.56703      	222.57854      	222.5983       	222.5756       	222.60262      	222.55759      	222.61111      	222.55756      	222.58661      	222.62477      	222.55573      	222.55807      	222.61629      	222.61618      	222.56508      	222.5702       	222.58536      	222.55206      	222.59015      	222.67886      	222.67953      	222.65126      	222.57779      	222.58981      	222.59985      	222.59329      	222.63051      	222.59708      	222.54915      	222.60048      	222.53445      	222.63344      	222.63327      	222.66762      	222.6088       	222.59616      	222.58342      	222.60945      	222.61008      	222.57352      	222.59317      	222.63516      	222.60399      	222.61028      	222.61871      	222.60107      	222.57687      	222.62831      	222.58932      	222.59174      	222.59511      	222.61028      	222.62975      	222.61493      	222.60736      	222.59969      	222.63986      	222.59447      	222.62186      	222.59323      	222.64203      	222.63829      	222.62575      	222.59637      	222.6011       	222.59073      	222.60313      	222.59894      	222.63194      	222.60104      	222.6049       	222.58458      	222.6784       	222.60402      	222.63664      	
222.75589      	222.75986      	222.75687      	222.74358      	222.7735       	222.81993      	222.833        	222.7768       	222.74637      	222.75194      	222.78993      	222.74803      	222.75359      	222.78018      	222.7434       	222.74686      	222.7453       	222.78526      	222.74295      	222.70947      	222.72691      	222.73524      	222.72414      	222.71703      	222.73546      	222.75095      	222.73233      	222.74535      	222.73639      	222.75162      	222.7466       	222.73494      	222.75896      	222.77817      	222.77644      	222.75072      	222.75035      	222.7658       	222.78477      	222.78917      	222.81186      	222.77948      	222.77147      	222.78114      	222.75136      	222.75975      	222.7552       	222.73569      	222.74953      	222.74228      	222.73257      	222.76572      	222.8024       	222.77713      	222.81253      	222.81078      	222.76929      	222.75148      	222.78207      	222.79558      	222.79884      	222.81102      	222.77695      	222.78165      	222.80643      	222.77135      	222.79373      	222.76913      	222.77765      	222.78629      	222.77472      	222.79457      	222.77322      	222.79552      	222.81647      	222.82603      	222.83473      	222.81544      	222.7816       	222.8757       	222.77107      	222.8513       	222.84036      	222.80692      	222.8013       	222.82602      	222.81973      	222.80295      	222.78505      	222.80637      	222.78119      	222.81052      	222.82358      	222.81862      	222.83156      	222.79005      	222.78394      	222.80138      	222.77448      	222.80061      	
222.95901      	222.94992      	222.95839      	222.9538       	222.938        	222.92888      	222.93636      	222.99893      	223.0134       	222.94186      	222.91667      	222.96564      	222.94514      	222.96124      	222.93686      	223.00406      	223.02794      	222.99617      	222.95375      	222.9558       	222.9868       	222.99658      	223.01978      	222.98766      	222.96678      	222.97716      	222.98387      	222.96907      	222.96776      	222.95363      	222.97673      	222.9617       	222.96991      	222.94637      	222.96004      	222.96498      	222.96605      	222.94383      	222.94362      	222.93175      	222.94107      	222.93091      	222.9562       	222.98093      	222.9285       	222.96143      	222.9363       	222.97583      	222.9838       	222.95126      	222.9773       	222.97493      	222.94954      	222.95311      	222.96292      	223.00555      	222.97714      	223.05315      	223.00017      	223.02164      	223.01482      	223.02173      	222.9996       	223.01129      	223.04271      	223.05788      	223.0068       	223.0559       	223.03458      	223.08714      	222.99039      	223.02513      	223.02914      	223.01398      	222.95451      	223.00317      	222.9766       	222.97005      	223.00789      	223.0259       	222.95883      	222.99487      	223.00836      	222.98592      	223.02603      	222.96101      	223.01874      	222.99832      	223.01521      	222.99916      	222.99352      	222.97092      	222.96948      	222.99672      	223.03941      	223.01642      	223.03792      	222.99034      	223.03937      	223.00845      	
223.09557      	223.12509      	223.10402      	223.08504      	223.07512      	223.09454      	223.12933      	223.06952      	223.11017      	223.10042      	223.13037      	223.11018      	223.13533      	223.10057      	223.13551      	223.11456      	223.08218      	223.10399      	223.11435      	223.11098      	223.13525      	223.1422       	223.11288      	223.11497      	223.1137       	223.08371      	223.09665      	223.11102      	223.17154      	223.12143      	223.17007      	223.12175      	223.1229       	223.16049      	223.14828      	223.15594      	223.09676      	223.12605      	223.12233      	223.108        	223.11461      	223.14273      	223.13362      	223.1115       	223.16354      	223.14484      	223.15175      	223.15804      	223.1294       	223.15681      	223.13812      	223.1167       	223.14876      	223.1369       	223.17717      	223.14406      	223.15976      	223.14227      	223.13197      	223.14857      	223.1551       	223.13657      	223.13425      	223.14474      	223.13571      	223.19835      	223.13666      	223.15094      	223.12466      	223.15677      	223.15831      	223.136        	223.12549      	223.13184      	223.14969      	223.11697      	223.08035      	223.12369      	223.08583      	223.06216      	223.10172      	223.0935       	223.09312      	223.0856       	223.07896      	223.08748      	223.0742       	223.088        	223.06435      	223.07237      	223.09854      	223.10057      	223.07161      	223.04884      	223.15074      	223.15024      	223.09798      	223.09196      	223.09573      	223.0923       	
223.09227      	223.10092      	223.11795      	223.11632      	223.1189       	223.13483      	223.09943      	223.10802      	223.13661      	223.14095      	223.12175      	223.11098      	223.12538      	223.12192      	223.11801      	223.11388      	223.13446      	223.11191      	223.1174       	223.1105       	223.14195      	223.10658      	223.0757       	223.12363      	223.1118       	223.0721       	223.12338      	223.12271      	223.13197      	223.11342      	223.16025      	223.18344      	223.13077      	223.13329      	223.12817      	223.09262      	223.103        	223.10278      	223.12451      	223.11868      	223.09888      	223.13104      	223.11891      	223.11581      	223.14622      	223.13217      	223.15565      	223.14008      	223.15091      	223.12393      	223.14502      	223.11917      	223.15433      	223.14523      	223.15431      	223.14659      	223.15681      	223.10402      	223.12898      	223.13956      	223.1244       	223.10165      	223.12018      	223.10097      	223.10075      	223.10115      	223.10097      	223.11722      	223.1153       	223.09964      	223.14932      	223.13524      	223.14545      	223.1372       	223.14484      	223.1114       	223.10457      	223.11191      	223.11572      	223.08339      	223.16884      	223.16325      	223.14078      	223.10178      	223.1237       	223.11066      	223.11026      	223.12054      	223.0895       	223.09714      	223.09967      	223.13647      	223.11642      	223.14934      	223.10237      	223.13841      	223.12318      	223.13942      	223.14142      	223.08527      	
223.19696      	223.18776      	223.20004      	223.17702      	223.18582      	223.16217      	223.17178      	223.18362      	223.20387      	223.18759      	223.17633      	223.1994       	223.21446      	223.1641       	223.17726      	223.18202      	223.1627       	223.18991      	223.16481      	223.18141      	223.20036      	223.19452      	223.20071      	223.19263      	223.1787       	223.19635      	223.17311      	223.2229       	223.19176      	223.17377      	223.16092      	223.20062      	223.16989      	223.20604      	223.21198      	223.21289      	223.24246      	223.23013      	223.18622      	223.21411      	223.21365      	223.21645      	223.21152      	223.18701      	223.20396      	223.2098       	223.18959      	223.2089       	223.20012      	223.20651      	223.21565      	223.21344      	223.21071      	223.225        	223.21585      	223.18231      	223.18826      	223.19826      	223.19212      	223.20616      	223.16034      	223.20474      	223.17952      	223.17368      	223.18951      	223.20738      	223.22906      	223.25424      	223.21132      	223.19759      	223.15799      	223.16129      	223.19974      	223.19199      	223.1868       	223.1983       	223.18797      	223.19225      	223.23427      	223.25594      	223.26378      	223.23538      	223.20724      	223.20493      	223.2162       	223.2139       	223.21727      	223.22092      	223.22493      	223.22865      	223.25635      	223.19775      	223.20801      	223.21024      	223.21791      	223.24974      	223.2333       	223.24266      	223.2263       	223.21707      	
223.21606      	223.18498      	223.20377      	223.2237       	223.21085      	223.18587      	223.2106       	223.25056      	223.23875      	223.2089       	223.17058      	223.1827       	223.23221      	223.17334      	223.17918      	223.17618      	223.17596      	223.16815      	223.15439      	223.17351      	223.1468       	223.11928      	223.1433       	223.1536       	223.14561      	223.15817      	223.15565      	223.16331      	223.14781      	223.17044      	223.15204      	223.14455      	223.15129      	223.12238      	223.14537      	223.15224      	223.13972      	223.15918      	223.1507       	223.15771      	223.14723      	223.17311      	223.22108      	223.18073      	223.17572      	223.13454      	223.13533      	223.15489      	223.15758      	223.18729      	223.18199      	223.15137      	223.14774      	223.17139      	223.14139      	223.16113      	223.15628      	223.14008      	223.1909       	223.18759      	223.16862      	223.2263       	223.21599      	223.25336      	223.23193      	223.22018      	223.19481      	223.19841      	223.20988      	223.2396       	223.26514      	223.22028      	223.23616      	223.25146      	223.24506      	223.23509      	223.22995      	223.23387      	223.22263      	223.23235      	223.24294      	223.23073      	223.23451      	223.24113      	223.23395      	223.25359      	223.28134      	223.24664      	223.2631       	223.26315      	223.25162      	223.2688       	223.27441      	223.26682      	223.27992      	223.25974      	223.22202      	223.23534      	223.25119      	223.26244      	
223.10825      	223.10194      	223.11026      	223.11339      	223.1141       	223.14177      	223.13141      	223.13266      	223.1099       	223.10182      	223.14578      	223.08984      	223.12535      	223.11427      	223.08698      	223.11925      	223.15732      	223.1805       	223.15555      	223.13841      	223.17252      	223.11638      	223.11696      	223.10027      	223.10626      	223.10732      	223.12025      	223.1144       	223.09747      	223.12112      	223.0773       	223.09848      	223.09804      	223.09131      	223.07837      	223.1077       	223.09367      	223.08755      	223.1119       	223.09946      	223.09166      	223.11386      	223.11743      	223.10825      	223.12039      	223.08194      	223.09442      	223.08304      	223.0886       	223.06137      	223.07736      	223.0505       	223.09903      	223.09277      	223.06877      	223.10661      	223.09459      	223.0752       	223.06633      	223.1017       	223.0739       	223.08424      	223.08543      	223.07587      	223.09117      	223.09227      	223.14394      	223.11287      	223.11497      	223.1308       	223.09601      	223.06372      	223.09622      	223.08286      	223.07297      	223.06064      	223.08336      	223.10196      	223.11107      	223.07016      	223.09999      	223.06847      	223.07079      	223.07933      	223.067        	223.05621      	223.05608      	223.07095      	223.04584      	223.0423       	223.02113      	223.0275       	223.0527       	223.02089      	223.0132       	223.0398       	223.01556      	223.00024      	222.9903       	222.9933       	
223.00177      	223.01808      	223.0202       	223.04364      	223.05556      	223.0432       	223.0425       	223.03299      	223.0144       	223.0539       	223.04045      	223.038        	223.02425      	223.02162      	223.0198       	223.01273      	223.03494      	223.04785      	223.03458      	223.0375       	223.03703      	223.05779      	223.06282      	223.06248      	223.03993      	223.07176      	223.04709      	223.04514      	223.01584      	223.05695      	223.03665      	223.01382      	222.99635      	223.0154       	223.0065       	223.01686      	222.99089      	222.99281      	222.98978      	222.99985      	223.00162      	223.00919      	222.99788      	223.03073      	223.02345      	223.0589       	223.05179      	223.07773      	223.08246      	223.05354      	223.04942      	223.05113      	223.05884      	223.10515      	223.05527      	223.07913      	223.03185      	223.05438      	223.08331      	223.0415       	223.05496      	223.0572       	223.06023      	223.08954      	223.06578      	223.0669       	223.07948      	223.07858      	223.0702       	223.09912      	223.09134      	223.0743       	223.09326      	223.0734       	223.09239      	223.06648      	223.12509      	223.10272      	223.12541      	223.11066      	223.07007      	223.10066      	223.09471      	223.12344      	223.1016       	223.07063      	223.09567      	223.09222      	223.05023      	223.11757      	223.09717      	223.12448      	223.14664      	223.06454      	223.08122      	223.10622      	223.06232      	223.09964      	223.06114      	223.05612      	
223.07404      	223.0742       	223.05656      	223.02075      	223.06473      	223.0995       	223.09825      	223.1259       	223.09299      	223.05907      	223.0558       	223.0971       	223.04614      	223.05714      	223.02423      	223.06648      	223.08275      	223.0983       	223.08595      	223.08188      	223.08168      	223.05183      	223.04343      	223.06593      	223.07521      	223.06418      	223.06126      	223.05707      	223.03897      	223.05841      	223.09009      	223.03568      	223.06439      	223.06552      	223.052        	223.07323      	223.06497      	223.06798      	223.104        	223.07195      	223.08426      	223.10194      	223.10994      	223.07991      	223.09694      	223.08986      	223.09193      	223.06859      	223.04135      	223.0423       	223.04471      	223.0474       	223.05275      	223.03247      	223.07347      	223.09105      	223.06017      	223.02333      	223.06703      	223.04881      	223.04417      	223.06801      	223.04068      	223.06003      	223.06487      	223.04698      	223.05077      	223.06613      	223.01028      	223.04254      	223.01126      	223.02573      	223.0209       	223.02005      	223.06107      	222.95474      	223.00018      	223.01668      	223.04558      	223.04192      	223.03732      	223.03548      	223.04181      	223.04616      	223.05827      	223.06961      	223.04544      	223.05656      	223.02216      	223.03215      	223.04446      	223.03435      	223.0654       	223.0134       	222.98756      	223.01315      	222.9999       	222.98877      	222.94994      	223.00252      	
223.01562      	223.00838      	222.99886      	223.00764      	223.02359      	223.01808      	223.03833      	223.03195      	223.02138      	223.02718      	223.03188      	223.07748      	223.01007      	223.05144      	223.02306      	223.01968      	223.01004      	223.00145      	222.98788      	222.99905      	223.01169      	223.01837      	223.0158       	223.00569      	223.0219       	223.01677      	223.06088      	223.04541      	223.02179      	223.0327       	223.03029      	223.05423      	223.04079      	223.0762       	223.02402      	223.03502      	223.03589      	223.04721      	223.05038      	223.02318      	223.07254      	223.08968      	223.02824      	223.03513      	223.03767      	223.06647      	223.07863      	223.07982      	223.09627      	223.03842      	223.04933      	223.01904      	223.0543       	223.06992      	223.04831      	223.03714      	223.0337       	223.03185      	223.05609      	223.03595      	223.04861      	223.04674      	223.01186      	223.02806      	223.03073      	223.02374      	223.03012      	223.0383       	223.01869      	223.02109      	223.02158      	223.03102      	223.0166       	223.01279      	223.01505      	222.99762      	223.04742      	222.99149      	223.01465      	223.0201       	223.02757      	223.05026      	223.08698      	223.03638      	223.06158      	223.05153      	223.00926      	223.02979      	223.02138      	223.05779      	223.01987      	223.03142      	223.04654      	223.06435      	223.02563      	223.09833      	223.09706      	223.08846      	223.08595      	223.07079      	
223.08446      	223.07835      	223.09608      	223.11745      	223.10939      	223.08739      	223.10265      	223.11905      	223.07333      	223.06363      	223.04712      	223.01608      	223.09142      	223.06859      	223.07782      	223.06543      	223.05588      	223.05997      	223.06528      	223.06557      	223.10701      	223.07608      	223.1182       	223.07419      	223.08377      	223.06044      	223.06342      	223.06624      	223.09056      	223.1271       	223.12434      	223.11452      	223.14127      	223.10477      	223.08067      	223.08676      	223.15186      	223.13553      	223.13974      	223.15054      	223.16805      	223.18034      	223.1622       	223.16576      	223.15797      	223.14932      	223.14786      	223.14209      	223.14725      	223.16995      	223.20624      	223.22029      	223.204        	223.19344      	223.16519      	223.19176      	223.15799      	223.1566       	223.15514      	223.15262      	223.15965      	223.20387      	223.19319      	223.13895      	223.1627       	223.15822      	223.134        	223.1311       	223.17455      	223.16864      	223.15948      	223.15218      	223.14314      	223.15738      	223.15755      	223.16116      	223.15456      	223.16325      	223.15018      	223.17299      	223.16234      	223.19582      	223.18117      	223.10419      	223.09743      	223.08635      	223.1098       	223.11354      	223.065        	223.05469      	223.06749      	223.08304      	223.0817       	223.06746      	223.08119      	223.05414      	223.06448      	223.09264      	223.08342      	223.08763      	
223.0446       	223.0156       	223.01144      	223.03882      	223.01329      	223.03995      	223.02762      	223.03477      	223.06094      	223.02306      	223.04393      	222.9892       	222.99301      	222.98111      	222.98538      	222.97836      	223.01003      	223.02943      	223.02058      	223.03261      	222.97298      	222.96376      	222.94386      	222.93451      	222.97224      	222.93196      	222.96243      	222.97722      	222.99306      	223.00278      	222.98557      	222.98361      	223.01474      	222.98158      	222.99799      	222.98885      	222.9962       	222.9929       	222.94809      	223.02354      	222.9826       	222.97575      	223.00246      	222.9791       	223.03485      	222.9728       	222.9787       	222.96956      	222.98776      	222.9912       	223.00377      	222.99332      	222.99431      	222.99422      	222.95312      	222.98085      	223.00919      	223.01346      	222.99219      	223.02452      	223.00693      	222.99962      	223.0191       	222.98843      	223.03278      	223.00491      	223.00851      	223.04224      	222.98308      	222.96303      	222.98045      	222.94994      	222.94312      	222.98283      	222.97069      	222.96165      	222.97911      	222.96107      	222.96408      	222.95491      	222.96017      	222.9498       	222.99088      	222.99075      	223.02158      	223.01793      	223.01642      	223.01979      	222.99725      	222.99951      	223.02223      	223.01604      	222.99965      	222.99098      	223.01855      	223.06268      	223.04584      	223.02403      	223.01491      	223.0144       	
223            	222.99121      	223.01495      	222.98671      	222.98737      	223.03719      	223.05045      	222.99136      	223.04471      	223.01862      	223.00586      	222.97723      	222.9889       	222.99716      	222.97775      	222.99184      	222.99489      	222.94652      	222.98361      	222.9607       	222.98102      	222.9519       	222.97906      	223.00587      	223.02338      	222.99997      	222.99628      	222.97575      	222.9943       	222.98969      	222.99008      	223.0128       	222.9896       	223.02669      	222.97421      	222.9839       	222.99542      	222.95624      	222.96965      	222.97607      	222.9487       	222.99216      	222.97893      	222.96396      	223.0006       	222.98001      	222.96072      	222.99649      	222.99643      	222.98006      	223.00122      	223.0017       	223.02365      	223.0183       	222.99983      	222.99518      	222.9885       	223.01367      	222.99557      	222.97942      	222.97012      	222.98782      	222.98595      	222.98836      	223.00252      	223.01482      	222.9866       	222.9618       	222.95517      	222.9682       	222.94402      	222.96896      	222.97517      	222.97006      	222.97708      	222.975        	222.93182      	222.90482      	222.94012      	222.92407      	222.87842      	222.90807      	222.92601      	222.94122      	222.93529      	222.91116      	222.9457       	222.96288      	222.9384       	222.9466       	222.98224      	222.94908      	222.93295      	222.95969      	222.93741      	222.97249      	222.93817      	222.95587      	222.9586       	222.96297      	
223.01207      	223.01588      	223.02423      	223.00171      	222.96208      	222.98117      	222.98503      	223.02773      	223.00949      	223.00993      	223.0122       	223.02054      	223.01508      	222.99115      	222.98103      	223.00847      	222.98169      	223.01106      	223.03249      	222.9851       	223.03067      	223.01039      	222.98448      	222.98903      	222.99463      	223.00201      	223.02357      	223.01596      	223.01755      	222.99506      	223.0054       	223.00931      	223.01503      	223.00838      	223.02281      	222.99367      	223.02434      	223.055        	223.04086      	223.07753      	223.01706      	223.01816      	222.98323      	222.99544      	222.99435      	223.01834      	223.00266      	223.01335      	222.979        	222.98186      	222.96208      	222.92015      	222.95761      	222.96886      	222.96616      	222.9802       	223.00983      	222.99236      	222.99069      	222.99002      	222.98419      	223.0134       	222.95517      	222.96829      	222.95189      	223.00862      	222.96634      	222.9812       	222.9703       	222.95602      	223.00125      	222.97855      	222.92732      	222.9009       	222.94534      	222.9346       	222.91148      	222.93553      	222.96439      	222.99704      	222.99107      	222.95288      	222.95045      	222.95811      	222.98045      	222.96605      	222.96492      	222.93826      	222.97162      	223.00143      	222.98557      	222.97821      	222.96568      	222.97707      	222.98642      	222.97604      	222.97342      	222.95631      	222.95914      	222.96916      	
223.00087      	223.00407      	223.01756      	223.00851      	222.9863       	223.00375      	223.00198      	223.02719      	223.01886      	223.01555      	223.02977      	223.01234      	223.03531      	222.99506      	222.98851      	223.04128      	222.99171      	222.99205      	222.99283      	222.96796      	223.00296      	222.99466      	223.01813      	223.01448      	223.02882      	223.02284      	222.98976      	223.01164      	223.00227      	222.992        	223.01074      	222.9991       	223.00873      	223.0172       	223.00133      	222.95425      	222.96356      	222.99672      	223.01106      	222.99991      	222.98528      	222.98167      	223.02025      	222.97305      	223.00717      	222.9839       	222.99495      	223.02809      	222.98576      	222.98622      	222.98648      	223.01286      	223.00473      	223.00739      	223.01503      	223.02563      	222.99333      	222.99208      	222.99716      	223.02368      	223.01889      	223.01077      	222.98949      	223.00154      	222.9798       	222.96469      	222.96097      	222.99341      	223.00237      	222.97804      	222.9427       	222.96652      	222.98569      	222.98793      	222.9806       	222.9798       	222.97868      	222.98965      	222.95467      	222.98381      	223.02316      	223.03598      	222.98103      	223.01765      	223.05002      	222.99818      	222.98657      	223.03416      	223.02872      	223.01141      	222.99478      	222.99449      	222.98517      	223.00937      	223.0341       	223.01071      	223.02954      	222.98521      	222.98892      	223.01321      	
223.15424      	223.15233      	223.09846      	223.11873      	223.15932      	223.14128      	223.12772      	223.15689      	223.13976      	223.14963      	223.11798      	223.13574      	223.12988      	223.16989      	223.12201      	223.17247      	223.16309      	223.16791      	223.11676      	223.12573      	223.11093      	223.12294      	223.18173      	223.14273      	223.1569       	223.1765       	223.13902      	223.10774      	223.13998      	223.11642      	223.12828      	223.11305      	223.14793      	223.11884      	223.12727      	223.10976      	223.15102      	223.14468      	223.1203       	223.10289      	223.11656      	223.11005      	223.13109      	223.1096       	223.1271       	223.12254      	223.11795      	223.09789      	223.11107      	223.12898      	223.10855      	223.1071       	223.10138      	223.11208      	223.10599      	223.10199      	223.09811      	223.10597      	223.11087      	223.11646      	223.10652      	223.15056      	223.12132      	223.0987       	223.11378      	223.11035      	223.09016      	223.12216      	223.0881       	223.10057      	223.10475      	223.10066      	223.08376      	223.11555      	223.08385      	223.11566      	223.08122      	223.07156      	223.08743      	223.11835      	223.11653      	223.09052      	223.09451      	223.10446      	223.08682      	223.14055      	223.07602      	223.09952      	223.0903       	223.06407      	223.09578      	223.06793      	223.10031      	223.08188      	223.06961      	223.08813      	223.10233      	223.06293      	223.04091      	223.0692       	
223.1724       	223.16428      	223.14304      	223.15115      	223.1599       	223.16966      	223.13582      	223.10675      	223.11711      	223.10973      	223.13681      	223.1267       	223.12086      	223.12833      	223.16653      	223.14505      	223.14772      	223.13083      	223.14279      	223.15462      	223.10292      	223.0962       	223.11197      	223.21104      	223.23186      	223.1904       	223.15765      	223.10016      	223.13235      	223.10213      	223.08656      	223.11003      	223.08707      	223.08441      	223.13509      	223.11775      	223.14127      	223.10799      	223.13931      	223.11482      	223.12779      	223.10626      	223.11974      	223.12782      	223.1279       	223.08725      	223.14087      	223.14218      	223.18692      	223.14381      	223.16786      	223.17055      	223.16528      	223.18382      	223.18387      	223.15335      	223.1739       	223.18112      	223.1783       	223.16927      	223.14584      	223.15024      	223.15701      	223.12848      	223.128        	223.1229       	223.11745      	223.14421      	223.14258      	223.11855      	223.12465      	223.16862      	223.16995      	223.163        	223.12454      	223.14316      	223.15453      	223.20004      	223.19162      	223.16902      	223.13306      	223.12558      	223.11981      	223.14206      	223.1644       	223.16699      	223.16388      	223.10262      	223.11603      	223.1168       	223.1183       	223.12607      	223.12323      	223.18121      	223.169        	223.14949      	223.18568      	223.22614      	223.13197      	223.13304      	
223.18983      	223.14542      	223.1495       	223.145        	223.1536       	223.14403      	223.1586       	223.16708      	223.17328      	223.15277      	223.18973      	223.15398      	223.16397      	223.11916      	223.15538      	223.15129      	223.14471      	223.16495      	223.15746      	223.14575      	223.16333      	223.18329      	223.1588       	223.14195      	223.16791      	223.12906      	223.14899      	223.12053      	223.14911      	223.14915      	223.1848       	223.18767      	223.1483       	223.14038      	223.1435       	223.15472      	223.17369      	223.15869      	223.14745      	223.13075      	223.12494      	223.16724      	223.17148      	223.20393      	223.25691      	223.19         	223.16647      	223.17032      	223.12726      	223.16705      	223.16545      	223.13763      	223.15639      	223.13878      	223.14885      	223.14893      	223.14468      	223.15529      	223.1661       	223.14911      	223.1505       	223.15408      	223.16382      	223.18733      	223.15826      	223.18631      	223.1859       	223.16376      	223.15895      	223.17892      	223.21872      	223.21347      	223.19073      	223.21935      	223.20505      	223.17714      	223.18805      	223.23927      	223.24057      	223.20589      	223.21257      	223.19257      	223.21109      	223.19151      	223.25319      	223.23024      	223.21997      	223.18234      	223.21274      	223.21883      	223.19443      	223.21617      	223.20872      	223.21237      	223.20158      	223.22052      	223.21593      	223.21542      	223.21861      	223.23145      	
223.2213       	223.1922       	223.1625       	223.17015      	223.18097      	223.18301      	223.19339      	223.18102      	223.16252      	223.17801      	223.17822      	223.15967      	223.163        	223.1224       	223.17714      	223.2035       	223.20361      	223.17627      	223.22887      	223.17982      	223.20126      	223.15933      	223.17899      	223.13914      	223.16685      	223.19049      	223.15779      	223.1652       	223.15765      	223.15602      	223.17805      	223.17764      	223.18637      	223.17885      	223.16495      	223.17635      	223.18414      	223.21828      	223.19777      	223.22232      	223.20302      	223.25668      	223.23117      	223.23813      	223.18019      	223.2049       	223.20229      	223.20236      	223.18025      	223.19678      	223.18964      	223.20343      	223.22096      	223.24588      	223.23903      	223.25328      	223.27106      	223.23656      	223.22342      	223.21689      	223.23546      	223.22423      	223.21173      	223.22504      	223.20883      	223.2011       	223.19002      	223.1738       	223.19838      	223.21384      	223.20111      	223.1798       	223.18724      	223.16658      	223.21466      	223.18663      	223.20177      	223.19667      	223.21071      	223.20697      	223.2019       	223.18832      	223.19472      	223.19077      	223.17142      	223.20525      	223.20807      	223.20807      	223.22006      	223.1964       	223.1822       	223.21571      	223.22127      	223.21718      	223.18805      	223.17812      	223.18034      	223.18701      	223.17107      	223.21126      	
223.30687      	223.30804      	223.30714      	223.30222      	223.28542      	223.29362      	223.32468      	223.31613      	223.28873      	223.30641      	223.30548      	223.3093       	223.30298      	223.29393      	223.31082      	223.31096      	223.30803      	223.2937       	223.31926      	223.3004       	223.29883      	223.32082      	223.29112      	223.32701      	223.29242      	223.29735      	223.31859      	223.32513      	223.29652      	223.3119       	223.31966      	223.33919      	223.30978      	223.32625      	223.29454      	223.31763      	223.322        	223.29979      	223.28606      	223.30623      	223.31195      	223.30194      	223.31837      	223.30249      	223.3057       	223.3091       	223.2956       	223.33495      	223.33311      	223.32893      	223.32367      	223.3449       	223.34694      	223.34196      	223.34392      	223.32968      	223.3378       	223.34938      	223.34544      	223.3454       	223.33983      	223.34921      	223.33887      	223.33487      	223.31944      	223.29036      	223.29208      	223.31741      	223.32738      	223.34232      	223.3633       	223.32716      	223.35146      	223.38412      	223.39055      	223.3984       	223.37067      	223.32513      	223.36447      	223.3353       	223.37985      	223.35252      	223.35167      	223.35295      	223.35045      	223.34438      	223.3694       	223.37747      	223.3589       	223.33138      	223.33578      	223.37865      	223.35635      	223.37637      	223.32225      	223.32967      	223.3456       	223.37068      	223.36562      	223.35048      	
223.43561      	223.40262      	223.40317      	223.42383      	223.40732      	223.4298       	223.38841      	223.42366      	223.42801      	223.40575      	223.41333      	223.43352      	223.42236      	223.4498       	223.4422       	223.42902      	223.45697      	223.44032      	223.43246      	223.49257      	223.5017       	223.49484      	223.51572      	223.50568      	223.51907      	223.55046      	223.53506      	223.50853      	223.50658      	223.50293      	223.50092      	223.52637      	223.54047      	223.51634      	223.52246      	223.49934      	223.52077      	223.50049      	223.48535      	223.46248      	223.50578      	223.53752      	223.55664      	223.51776      	223.51967      	223.52695      	223.55223      	223.54102      	223.56909      	223.55437      	223.56325      	223.57501      	223.57838      	223.57013      	223.54056      	223.5514       	223.53929      	223.53575      	223.55396      	223.56143      	223.56003      	223.56227      	223.51097      	223.54105      	223.55046      	223.54153      	223.55151      	223.51698      	223.50339      	223.5144       	223.55724      	223.54733      	223.5275       	223.54036      	223.54376      	223.54929      	223.52457      	223.487        	223.52817      	223.50653      	223.50409      	223.50136      	223.5132       	223.51585      	223.57077      	223.51614      	223.49033      	223.52325      	223.5054       	223.51047      	223.53249      	223.51224      	223.5112       	223.55353      	223.53934      	223.52376      	223.50555      	223.50314      	223.50789      	223.49277      	
223.54572      	223.56915      	223.55028      	223.54028      	223.55983      	223.5388       	223.57999      	223.56184      	223.54973      	223.5406       	223.5581       	223.53978      	223.5602       	223.54242      	223.54926      	223.5341       	223.55803      	223.55882      	223.55392      	223.56209      	223.51172      	223.53285      	223.5512       	223.54105      	223.53554      	223.51462      	223.53395      	223.53014      	223.54945      	223.50902      	223.55803      	223.52924      	223.52509      	223.53685      	223.52312      	223.54178      	223.53806      	223.53568      	223.55629      	223.56068      	223.54575      	223.54648      	223.58755      	223.5248       	223.50348      	223.52663      	223.5114       	223.51703      	223.48607      	223.4585       	223.50002      	223.52406      	223.49838      	223.53094      	223.48412      	223.45795      	223.49567      	223.49333      	223.56145      	223.56778      	223.5298       	223.56065      	223.5512       	223.57594      	223.56168      	223.51747      	223.51065      	223.54015      	223.52756      	223.54237      	223.51743      	223.53331      	223.52615      	223.52647      	223.55525      	223.54347      	223.54843      	223.54272      	223.5257       	223.55695      	223.5271       	223.54349      	223.5127       	223.52682      	223.5441       	223.5182       	223.53314      	223.50414      	223.49113      	223.51196      	223.52806      	223.5025       	223.52989      	223.51727      	223.49449      	223.49355      	223.52791      	223.53773      	223.56944      	223.49896      	
223.4104       	223.43956      	223.4558       	223.41293      	223.42326      	223.44327      	223.40674      	223.44057      	223.43344      	223.42189      	223.44743      	223.44792      	223.46387      	223.43442      	223.43442      	223.4279       	223.43994      	223.46146      	223.44946      	223.43848      	223.45567      	223.45166      	223.47444      	223.46075      	223.458        	223.47958      	223.46027      	223.46254      	223.45761      	223.4999       	223.48605      	223.48727      	223.48041      	223.50113      	223.45432      	223.46321      	223.47461      	223.45265      	223.45644      	223.4639       	223.48648      	223.49432      	223.47214      	223.5126       	223.46796      	223.48657      	223.45738      	223.50565      	223.48692      	223.44482      	223.47162      	223.47453      	223.45221      	223.5037       	223.44978      	223.45091      	223.47502      	223.46225      	223.46384      	223.45322      	223.45682      	223.48445      	223.43227      	223.47523      	223.45158      	223.46231      	223.46223      	223.47287      	223.44835      	223.44489      	223.44754      	223.45135      	223.46129      	223.46582      	223.44891      	223.50165      	223.46533      	223.45403      	223.47995      	223.46756      	223.4537       	223.46214      	223.4667       	223.47684      	223.49484      	223.49951      	223.50223      	223.52856      	223.47568      	223.51044      	223.52184      	223.47891      	223.47458      	223.46722      	223.47232      	223.48268      	223.48096      	223.46037      	223.45766      	223.48688      	
223.58778      	223.60873      	223.62329      	223.58252      	223.57724      	223.54265      	223.54489      	223.5827       	223.55193      	223.52054      	223.54343      	223.52318      	223.5527       	223.4979       	223.4487       	223.48856      	223.44466      	223.47865      	223.44203      	223.45476      	223.4599       	223.45412      	223.43776      	223.43701      	223.43533      	223.46994      	223.45966      	223.45021      	223.44798      	223.4212       	223.46362      	223.45424      	223.46071      	223.44676      	223.47673      	223.45953      	223.44217      	223.46107      	223.4468       	223.45486      	223.44823      	223.47955      	223.48029      	223.47469      	223.48004      	223.47867      	223.4811       	223.49644      	223.501        	223.45966      	223.44745      	223.47182      	223.47118      	223.50885      	223.47093      	223.5193       	223.5113       	223.52013      	223.50497      	223.48053      	223.48389      	223.51422      	223.48494      	223.49857      	223.48944      	223.48022      	223.4894       	223.47493      	223.47433      	223.49316      	223.48836      	223.4921       	223.51407      	223.49121      	223.50706      	223.48985      	223.47583      	223.50543      	223.47206      	223.47566      	223.44385      	223.4772       	223.4672       	223.44565      	223.4371       	223.46286      	223.4595       	223.44122      	223.46191      	223.43411      	223.4433       	223.44821      	223.45953      	223.42513      	223.45277      	223.45444      	223.45842      	223.4488       	223.45882      	223.44298      	
223.31845      	223.30128      	223.29729      	223.30722      	223.295        	223.29984      	223.30138      	223.3162       	223.32236      	223.32887      	223.34279      	223.3291       	223.39044      	223.33588      	223.35902      	223.33144      	223.35327      	223.3506       	223.31706      	223.34091      	223.34503      	223.30882      	223.3553       	223.3096       	223.36917      	223.31212      	223.32959      	223.32887      	223.3406       	223.34456      	223.34943      	223.33348      	223.35872      	223.34897      	223.35202      	223.35948      	223.35622      	223.30037      	223.36638      	223.35468      	223.3795       	223.37695      	223.36864      	223.3764       	223.36801      	223.36208      	223.40419      	223.38492      	223.3763       	223.38715      	223.3676       	223.3679       	223.37866      	223.38023      	223.37238      	223.38655      	223.38243      	223.37357      	223.36813      	223.3661       	223.35735      	223.38434      	223.34982      	223.36928      	223.37692      	223.34836      	223.4017       	223.40782      	223.36449      	223.3552       	223.34888      	223.37453      	223.3832       	223.36612      	223.3615       	223.39551      	223.36461      	223.39581      	223.39565      	223.3629       	223.38963      	223.39908      	223.40175      	223.37718      	223.40256      	223.3994       	223.4172       	223.40633      	223.38593      	223.41519      	223.3913       	223.38748      	223.39024      	223.3998       	223.39706      	223.37117      	223.42505      	223.3843       	223.38425      	223.37967      	
223.44174      	223.4518       	223.42136      	223.40929      	223.41637      	223.41031      	223.40372      	223.43094      	223.38882      	223.3827       	223.40509      	223.42003      	223.40895      	223.42404      	223.40414      	223.42131      	223.41344      	223.40877      	223.42668      	223.44556      	223.41844      	223.44026      	223.44025      	223.44255      	223.45247      	223.47192      	223.44066      	223.48608      	223.47273      	223.46817      	223.47269      	223.46681      	223.4616       	223.47055      	223.49178      	223.52646      	223.48935      	223.468        	223.48648      	223.48729      	223.4943       	223.51295      	223.50383      	223.50343      	223.4837       	223.48648      	223.51419      	223.49554      	223.47777      	223.48828      	223.49358      	223.48358      	223.48875      	223.49657      	223.47792      	223.47328      	223.50983      	223.52054      	223.5425       	223.4873       	223.48805      	223.48709      	223.50732      	223.51987      	223.53311      	223.50578      	223.50107      	223.54132      	223.50797      	223.51144      	223.51295      	223.49843      	223.5089       	223.5093       	223.5347       	223.55057      	223.5816       	223.52235      	223.54385      	223.53435      	223.52196      	223.54591      	223.48209      	223.50699      	223.51514      	223.50032      	223.56651      	223.49677      	223.5322       	223.50609      	223.53795      	223.5344       	223.51466      	223.5134       	223.54164      	223.46222      	223.4951       	223.47168      	223.47714      	223.46939      	
223.55429      	223.54579      	223.53322      	223.51923      	223.50853      	223.5181       	223.52449      	223.54378      	223.5755       	223.68224      	223.70851      	223.68639      	223.6661       	223.62807      	223.59698      	223.60701      	223.63617      	223.63322      	223.5971       	223.60847      	223.58868      	223.62177      	223.56578      	223.58884      	223.60327      	223.58734      	223.59421      	223.59427      	223.58755      	223.5998       	223.58153      	223.58528      	223.5539       	223.57277      	223.59367      	223.6246       	223.62767      	223.61673      	223.58913      	223.59972      	223.60031      	223.6349       	223.5967       	223.6177       	223.59744      	223.58757      	223.60963      	223.64232      	223.597        	223.62189      	223.61288      	223.58836      	223.60074      	223.6138       	223.63582      	223.58873      	223.63809      	223.58229      	223.62271      	223.62363      	223.62354      	223.61359      	223.58714      	223.60645      	223.62189      	223.60449      	223.60384      	223.60017      	223.61043      	223.55638      	223.60985      	223.59898      	223.58084      	223.61925      	223.6469       	223.61458      	223.6416       	223.62936      	223.59317      	223.59769      	223.58154      	223.62158      	223.60783      	223.60995      	223.59232      	223.62971      	223.60695      	223.58203      	223.59392      	223.60495      	223.5787       	223.59528      	223.59198      	223.583        	223.58669      	223.62091      	223.60686      	223.60678      	223.52243      	223.58983      	
223.79881      	223.78781      	223.78857      	223.77832      	223.76645      	223.80127      	223.82892      	223.83145      	223.80894      	223.85765      	223.82404      	223.82983      	223.83595      	223.84274      	223.77512      	223.81586      	223.79288      	223.79973      	223.82501      	223.82747      	223.85597      	223.83224      	223.85466      	223.81055      	223.81668      	223.83234      	223.80234      	223.85641      	223.86833      	223.84581      	223.84456      	223.85791      	223.84406      	223.85313      	223.83778      	223.82806      	223.88022      	223.8732       	223.87476      	223.88689      	223.89207      	223.85129      	223.9111       	223.89613      	223.87752      	223.8948       	223.8938       	223.89696      	223.87573      	223.91347      	223.86304      	223.86496      	223.86534      	223.8915       	223.93878      	223.91115      	223.9262       	223.95924      	223.89876      	223.92429      	223.886        	223.89174      	223.88463      	223.91808      	223.95134      	223.95114      	223.88644      	223.8942       	223.87831      	223.86835      	223.87012      	223.87448      	223.88486      	223.91805      	223.89891      	223.90176      	223.87885      	223.8902       	223.9266       	223.87329      	223.90973      	223.89348      	223.91315      	223.90292      	223.87654      	223.8916       	223.85936      	223.87509      	223.89813      	223.92833      	223.93141      	223.91873      	223.91876      	223.93651      	223.90988      	223.95793      	223.92506      	223.89429      	223.87733      	223.92146      	
223.94711      	223.90982      	223.93953      	223.97592      	223.93138      	223.93597      	223.92683      	223.90024      	223.92946      	223.92635      	223.92407      	223.88797      	223.90358      	223.9326       	223.89192      	223.91203      	223.89731      	223.90598      	223.88983      	223.86778      	223.8916       	223.89885      	223.89513      	223.92052      	223.87581      	223.89369      	223.9306       	223.86963      	223.91371      	223.90729      	223.90123      	223.91322      	223.9429       	223.89868      	223.9018       	223.90814      	223.90147      	223.89786      	223.88158      	223.89911      	223.9072       	223.90569      	223.8968       	223.92075      	223.9191       	223.90471      	223.88197      	223.89233      	223.90941      	223.90617      	223.91243      	223.89813      	223.89592      	223.89151      	223.89825      	223.88327      	223.8754       	223.87845      	223.89352      	223.92038      	223.90242      	223.86697      	223.90137      	223.8768       	223.85696      	223.87674      	223.84146      	223.86964      	223.87338      	223.83974      	223.90576      	223.88435      	223.86182      	223.859        	223.8735       	223.85214      	223.9125       	223.89426      	223.8815       	223.91518      	223.92693      	223.88742      	223.93102      	223.88728      	223.89519      	223.9221       	223.9043       	223.88695      	223.9162       	223.88052      	223.87772      	223.8602       	223.86598      	223.83633      	223.89757      	223.85423      	223.83098      	223.83246      	223.84198      	223.84448      	
223.8697       	223.85197      	223.86917      	223.899        	223.8688       	223.84305      	223.85097      	223.84413      	223.85387      	223.83919      	223.80191      	223.79509      	223.81967      	223.8239       	223.8238       	223.81876      	223.79932      	223.79175      	223.81593      	223.77992      	223.8243       	223.82375      	223.81212      	223.79517      	223.82628      	223.76907      	223.79039      	223.80444      	223.78876      	223.80002      	223.80418      	223.78253      	223.786        	223.79915      	223.8388       	223.77556      	223.78256      	223.74042      	223.77711      	223.78346      	223.77516      	223.74937      	223.76004      	223.77194      	223.74184      	223.73161      	223.74466      	223.76688      	223.73836      	223.75406      	223.73563      	223.71922      	223.75778      	223.77034      	223.7692       	223.74844      	223.78433      	223.76343      	223.7873       	223.79105      	223.79803      	223.77011      	223.76308      	223.79544      	223.7819       	223.73227      	223.7246       	223.7418       	223.7802       	223.76334      	223.77759      	223.75896      	223.76538      	223.75844      	223.76581      	223.75363      	223.78246      	223.72238      	223.69843      	223.6988       	223.70343      	223.72589      	223.74608      	223.72305      	223.74806      	223.7429       	223.74118      	223.73558      	223.71869      	223.72583      	223.72363      	223.7344       	223.7425       	223.72813      	223.7081       	223.7276       	223.70743      	223.72812      	223.71004      	223.74588      	
223.798        	223.7988       	223.81773      	223.85654      	223.84479      	223.80756      	223.81879      	223.78093      	223.79953      	223.77873      	223.79132      	223.78085      	223.77614      	223.76115      	223.77365      	223.78703      	223.80116      	223.77463      	223.75055      	223.7536       	223.79192      	223.78835      	223.75998      	223.78102      	223.73634      	223.76498      	223.76715      	223.76698      	223.78906      	223.75575      	223.76929      	223.78917      	223.7684       	223.75209      	223.77487      	223.76495      	223.7565       	223.75299      	223.7635       	223.7963       	223.74445      	223.72134      	223.73863      	223.76987      	223.73167      	223.75618      	223.76292      	223.74796      	223.7521       	223.7456       	223.73753      	223.7676       	223.76382      	223.7601       	223.75789      	223.74715      	223.75003      	223.74689      	223.76108      	223.76189      	223.75864      	223.78185      	223.75269      	223.77092      	223.75871      	223.74666      	223.77516      	223.76596      	223.77858      	223.79143      	223.75426      	223.80873      	223.7802       	223.80827      	223.78217      	223.77887      	223.79868      	223.78903      	223.82253      	223.81888      	223.78972      	223.80786      	223.78986      	223.80234      	223.77707      	223.78033      	223.81648      	223.7577       	223.76537      	223.79462      	223.76613      	223.84169      	223.82794      	223.80385      	223.78302      	223.7911       	223.79793      	223.76071      	223.79193      	223.80183      	
223.74536      	223.786        	223.74782      	223.74586      	223.74625      	223.76227      	223.78062      	223.78717      	223.72916      	223.78696      	223.71742      	223.75137      	223.77116      	223.76025      	223.74689      	223.76784      	223.75308      	223.73366      	223.72916      	223.74625      	223.73958      	223.74875      	223.76106      	223.73622      	223.75157      	223.7325       	223.69498      	223.73459      	223.69974      	223.73004      	223.72299      	223.72366      	223.72519      	223.73224      	223.70497      	223.71747      	223.7038       	223.68546      	223.70436      	223.7216       	223.71161      	223.70099      	223.69041      	223.70995      	223.6906       	223.68097      	223.72586      	223.70331      	223.73422      	223.69897      	223.66664      	223.70636      	223.68338      	223.68285      	223.69118      	223.69647      	223.69353      	223.69742      	223.73103      	223.68147      	223.70296      	223.72081      	223.70255      	223.67596      	223.67606      	223.69409      	223.70221      	223.67188      	223.6923       	223.71725      	223.71967      	223.73239      	223.72566      	223.67644      	223.64589      	223.67923      	223.69011      	223.67781      	223.65866      	223.6561       	223.65227      	223.66585      	223.7064       	223.67795      	223.6888       	223.67606      	223.6928       	223.6863       	223.66628      	223.66348      	223.68236      	223.66301      	223.69058      	223.67702      	223.6932       	223.70892      	223.70462      	223.69814      	223.72043      	223.69173      	
223.76823      	223.78494      	223.80301      	223.78766      	223.8007       	223.79996      	223.81958      	223.79526      	223.79259      	223.80763      	223.81462      	223.82253      	223.8316       	223.79745      	223.8076       	223.78151      	223.76572      	223.77884      	223.75604      	223.78978      	223.77246      	223.78493      	223.84406      	223.86539      	223.81142      	223.78421      	223.81842      	223.84343      	223.81882      	223.83846      	223.80801      	223.81274      	223.83444      	223.82806      	223.82196      	223.8569       	223.83075      	223.82782      	223.82883      	223.80186      	223.84459      	223.81894      	223.85118      	223.83322      	223.8482       	223.85036      	223.82536      	223.82893      	223.83876      	223.85593      	223.8645       	223.82332      	223.85008      	223.81316      	223.82016      	223.81247      	223.8209       	223.80951      	223.81445      	223.78792      	223.83363      	223.79028      	223.81801      	223.82718      	223.83447      	223.82755      	223.84584      	223.8115       	223.8334       	223.85236      	223.84671      	223.83635      	223.85417      	223.85138      	223.83676      	223.84238      	223.82268      	223.82089      	223.83249      	223.8244       	223.81912      	223.81097      	223.83961      	223.81668      	223.79239      	223.82753      	223.82225      	223.81003      	223.85832      	223.84567      	223.86032      	223.82883      	223.84315      	223.83838      	223.84177      	223.87045      	223.84921      	223.84186      	223.87303      	223.84506      	
223.89363      	223.91748      	223.9119       	223.89662      	223.91257      	223.8961       	223.8793       	223.91571      	223.90648      	223.88199      	223.902        	223.8651       	223.86058      	223.89949      	223.91368      	223.89195      	223.89642      	223.9292       	223.87148      	223.85936      	223.90218      	223.87549      	223.9039       	223.92601      	223.87433      	223.85881      	223.86612      	223.85321      	223.87302      	223.90378      	223.90045      	223.87915      	223.88832      	223.8779       	223.85187      	223.85886      	223.88948      	223.8465       	223.86192      	223.86844      	223.86118      	223.89069      	223.83057      	223.86191      	223.87778      	223.86713      	223.87306      	223.871        	223.86491      	223.8848       	223.91673      	223.86266      	223.84341      	223.86757      	223.89917      	223.9005       	223.88289      	223.9236       	223.91446      	223.90334      	223.86722      	223.90317      	223.86125      	223.89452      	223.89725      	223.88965      	223.88857      	223.90329      	223.90224      	223.87106      	223.86583      	223.88078      	223.87917      	223.86526      	223.85683      	223.85172      	223.87775      	223.8799       	223.90771      	223.87474      	223.87744      	223.88988      	223.8789       	223.87648      	223.9134       	223.905        	223.8941       	223.86313      	223.8926       	223.90558      	223.87804      	223.87729      	223.87738      	223.89508      	223.87827      	223.86008      	223.86139      	223.89133      	223.9129       	223.91074      	
224.0294       	224.01357      	224.02151      	224.02124      	224.00941      	224.01962      	224.02725      	224.03647      	224.0241       	224.03197      	224.03568      	224.015        	224.01833      	224.00043      	224.00398      	224.02992      	224.00652      	224.03174      	224.03136      	224.0345       	224.04027      	224.02151      	224.03636      	224.01978      	224.00987      	224.03603      	224.02798      	224.03278      	224.05783      	224.02882      	224.05157      	224.04297      	224.0184       	224.02196      	224.04477      	224.012        	224.04655      	224.01926      	224.00832      	224.03404      	224.00797      	224.02106      	224.01767      	224.02036      	224.04442      	224.01768      	224.0204       	224.02638      	224.04037      	224.04994      	224.05206      	224.03654      	224.05194      	224.02333      	224.04134      	224.05252      	224.05165      	224.04105      	224.01886      	224.03607      	224.01402      	224.04462      	224.03368      	224.0386       	224.06598      	224.00594      	224.00467      	224.01028      	223.99463      	224.01346      	223.98183      	224.01398      	224.03548      	224.03665      	224.0172       	224.0517       	224.02496      	224.02289      	224.03499      	224.05624      	224.04083      	224.02762      	224.08586      	224.06203      	224.0568       	224.0428       	224.0672       	224.04437      	224.06078      	224.04323      	224.08075      	224.09845      	224.10321      	224.0886       	224.09651      	224.0936       	224.09413      	224.05602      	224.08731      	224.07063      	
224.09769      	224.10782      	224.06581      	224.07925      	224.1048       	224.07944      	224.07904      	224.05309      	224.06088      	224.03966      	224.06194      	224.04538      	224.04422      	223.98674      	223.96983      	224.03331      	224.02148      	224.02927      	224.03026      	224.03304      	224.02509      	224.05336      	224.07338      	224.07693      	224.05745      	224.05211      	224.03152      	224.05125      	224.05807      	224.04935      	224.05472      	224.05344      	224.0467       	224.0339       	224.01999      	224.03311      	224.03653      	224.02092      	224.01671      	224.03181      	224.05191      	224.0051       	224.04095      	224.04816      	224.01936      	224.01645      	223.99176      	224.0036       	224.02708      	224.03864      	224.055        	224.00838      	223.98984      	223.99606      	224.0123       	224.01367      	223.98485      	223.99225      	224.0286       	223.99649      	223.96916      	223.98766      	223.96056      	223.98349      	223.99121      	223.97655      	224.01399      	224.00223      	224.01709      	223.99869      	224.0038       	223.9719       	223.97623      	223.9813       	224.00424      	224.01294      	223.96127      	224.00397      	223.98036      	223.95694      	223.99155      	224.0349       	224.01852      	223.98949      	223.9909       	223.95895      	223.99966      	223.9869       	223.95763      	223.96732      	223.98978      	223.9829       	223.96263      	223.96062      	223.95718      	223.99968      	223.97656      	223.95744      	224.00941      	223.98859      	
223.87216      	223.90129      	223.90286      	223.87086      	223.86363      	223.90265      	223.91066      	223.91985      	223.91356      	223.90924      	223.88268      	223.90309      	223.90967      	223.94208      	223.94772      	223.91159      	223.87283      	223.92801      	223.91061      	223.87752      	223.89386      	223.8872       	223.86874      	223.87297      	223.87607      	223.83577      	223.86635      	223.86377      	223.89484      	223.89618      	223.88396      	223.8683       	223.88078      	223.86447      	223.85603      	223.87709      	223.91104      	223.84724      	223.87744      	223.87405      	223.86473      	223.87856      	223.89488      	223.86555      	223.86154      	223.86142      	223.87288      	223.8788       	223.86078      	223.86618      	223.90306      	223.84927      	223.8445       	223.8734       	223.87384      	223.91977      	223.89035      	223.8697       	223.86578      	223.87682      	223.8662       	223.87265      	223.86435      	223.92804      	223.97713      	223.82114      	223.80807      	223.82933      	223.88792      	223.843        	223.84723      	223.83841      	223.85243      	223.80687      	223.86311      	223.84264      	223.83406      	223.81502      	223.82753      	223.79987      	223.80974      	223.80531      	223.81041      	223.81207      	223.81131      	223.78014      	223.80965      	223.76398      	223.77936      	223.7742       	223.77603      	223.7674       	223.77881      	223.76099      	223.78816      	223.76129      	223.7525       	223.7569       	223.73347      	223.74976      	
223.8286       	223.83252      	223.79788      	223.80933      	223.81131      	223.81422      	223.8574       	223.87985      	223.83987      	223.8091       	223.8447       	223.8688       	223.82642      	223.82225      	223.81096      	223.7985       	223.84962      	223.8036       	223.81273      	223.80223      	223.80202      	223.83276      	223.82625      	223.83612      	223.83147      	223.83072      	223.81415      	223.81256      	223.84677      	223.83963      	223.80609      	223.78073      	223.81004      	223.80176      	223.81029      	223.7743       	223.78874      	223.80055      	223.789        	223.824        	223.7767       	223.80453      	223.77676      	223.7614       	223.79988      	223.74417      	223.7444       	223.76366      	223.73026      	223.72566      	223.77574      	223.76353      	223.76166      	223.76442      	223.7715       	223.77441      	223.75323      	223.76947      	223.76947      	223.74722      	223.72157      	223.77542      	223.77928      	223.71829      	223.74376      	223.68478      	223.6858       	223.65579      	223.66382      	223.67136      	223.67917      	223.6619       	223.63756      	223.65565      	223.63622      	223.63402      	223.66713      	223.63933      	223.65584      	223.64658      	223.64323      	223.62328      	223.62413      	223.60843      	223.65625      	223.62259      	223.61844      	223.66675      	223.64781      	223.62961      	223.64622      	223.65231      	223.668        	223.70152      	223.71548      	223.68872      	223.66951      	223.67772      	223.66954      	223.65575      	
223.58755      	223.58792      	223.58694      	223.5735       	223.57674      	223.59995      	223.54904      	223.56375      	223.57024      	223.57944      	223.56364      	223.55194      	223.53972      	223.55211      	223.51115      	223.49835      	223.49709      	223.51562      	223.54124      	223.47769      	223.52086      	223.53502      	223.57323      	223.5517       	223.56097      	223.57936      	223.5634       	223.52582      	223.56534      	223.57008      	223.55333      	223.57477      	223.61546      	223.57544      	223.56229      	223.53873      	223.55235      	223.54088      	223.54971      	223.53346      	223.55814      	223.55641      	223.55884      	223.54259      	223.54466      	223.53717      	223.53473      	223.54607      	223.54256      	223.50812      	223.5314       	223.52855      	223.52948      	223.52875      	223.53842      	223.53311      	223.56874      	223.5704       	223.55731      	223.59103      	223.59406      	223.59009      	223.52695      	223.54091      	223.54323      	223.54274      	223.51074      	223.54582      	223.54143      	223.52322      	223.54709      	223.50304      	223.50345      	223.54118      	223.53854      	223.54662      	223.52774      	223.53722      	223.51349      	223.54103      	223.5367       	223.54367      	223.55026      	223.56358      	223.52377      	223.55272      	223.55124      	223.5187       	223.52806      	223.52481      	223.49632      	223.50917      	223.55397      	223.54506      	223.55511      	223.52975      	223.52528      	223.54697      	223.54247      	223.55829      	
223.64024      	223.66678      	223.64027      	223.63768      	223.67464      	223.6626       	223.66087      	223.67879      	223.67386      	223.69891      	223.67738      	223.65866      	223.66452      	223.6726       	223.69603      	223.68126      	223.678        	223.67453      	223.65424      	223.67911      	223.67064      	223.6582       	223.6361       	223.68126      	223.65219      	223.63463      	223.64583      	223.63316      	223.63382      	223.63617      	223.6354       	223.64908      	223.66254      	223.6526       	223.65509      	223.64671      	223.64748      	223.62462      	223.65088      	223.63593      	223.64206      	223.635        	223.65753      	223.646        	223.67148      	223.66469      	223.66989      	223.69159      	223.65582      	223.6485       	223.68126      	223.68456      	223.65404      	223.66591      	223.66068      	223.6669       	223.64641      	223.65895      	223.65886      	223.69887      	223.63297      	223.67627      	223.66774      	223.66054      	223.6476       	223.62933      	223.6085       	223.62912      	223.62604      	223.64635      	223.63931      	223.62897      	223.6402       	223.65869      	223.66046      	223.6588       	223.65343      	223.65968      	223.63351      	223.66595      	223.66298      	223.67683      	223.69768      	223.70201      	223.70354      	223.68695      	223.67667      	223.7034       	223.65819      	223.64973      	223.66808      	223.66112      	223.6722       	223.6499       	223.67326      	223.65952      	223.6495       	223.66658      	223.68985      	223.6813       	
223.77817      	223.75595      	223.76683      	223.74066      	223.75049      	223.76402      	223.75684      	223.75076      	223.81041      	223.80666      	223.84372      	223.80775      	223.79541      	223.75784      	223.77171      	223.77675      	223.78098      	223.82126      	223.80247      	223.79842      	223.77542      	223.8154       	223.77313      	223.82372      	223.79799      	223.8004       	223.81844      	223.8089       	223.79149      	223.77316      	223.79105      	223.80336      	223.79918      	223.82545      	223.80984      	223.79208      	223.7768       	223.79263      	223.8099       	223.83078      	223.83653      	223.85368      	223.8426       	223.8313       	223.83917      	223.7966       	223.81241      	223.79977      	223.83951      	223.80144      	223.83229      	223.7621       	223.77994      	223.78993      	223.7851       	223.7889       	223.78947      	223.77565      	223.81183      	223.78726      	223.772        	223.78606      	223.78226      	223.8015       	223.81744      	223.83395      	223.82143      	223.82341      	223.8038       	223.82208      	223.81361      	223.79527      	223.8465       	223.83228      	223.81837      	223.83658      	223.83253      	223.8493       	223.8445       	223.82999      	223.83594      	223.87706      	223.87582      	223.91032      	223.86906      	223.8555       	223.8834       	223.89774      	223.88606      	223.92145      	223.88177      	223.88608      	223.88724      	223.86646      	223.91852      	223.85162      	223.88425      	223.9297       	223.9122       	223.85182      	
224.17285      	224.1421       	224.13783      	224.15196      	224.13135      	224.1319       	224.14569      	224.18024      	224.17982      	224.1786       	224.18153      	224.18784      	224.21165      	224.17686      	224.2005       	224.22098      	224.20409      	224.20602      	224.2229       	224.21437      	224.23404      	224.20996      	224.19476      	224.18806      	224.19322      	224.22186      	224.2124       	224.20744      	224.17577      	224.22916      	224.21349      	224.23288      	224.21307      	224.2117       	224.23695      	224.22263      	224.20297      	224.22371      	224.23192      	224.21085      	224.24739      	224.22055      	224.1775       	224.17972      	224.19728      	224.26915      	224.24362      	224.19029      	224.2385       	224.23723      	224.2137       	224.22827      	224.23697      	224.22118      	224.24461      	224.22174      	224.23912      	224.19919      	224.22044      	224.2277       	224.25706      	224.19426      	224.22057      	224.2573       	224.22974      	224.21393      	224.2142       	224.214        	224.20038      	224.1417       	224.1601       	224.15866      	224.16005      	224.18483      	224.2297       	224.21547      	224.18376      	224.21254      	224.229        	224.18039      	224.19484      	224.1723       	224.1684       	224.16344      	224.15909      	224.16457      	224.13857      	224.171        	224.19928      	224.20053      	224.18571      	224.211        	224.18053      	224.19827      	224.2045       	224.18471      	224.20285      	224.17532      	224.17758      	224.2036       	
224.28421      	224.2911       	224.27971      	224.2776       	224.27922      	224.29842      	224.29755      	224.2551       	224.2669       	224.29396      	224.28275      	224.27892      	224.29027      	224.29782      	224.32626      	224.27765      	224.28444      	224.25595      	224.25499      	224.23148      	224.28711      	224.27457      	224.27794      	224.27335      	224.26831      	224.27054      	224.29105      	224.27531      	224.26562      	224.27197      	224.2573       	224.25233      	224.27853      	224.28812      	224.26096      	224.23486      	224.28107      	224.28151      	224.33139      	224.27963      	224.28215      	224.29346      	224.26291      	224.29663      	224.27922      	224.29572      	224.3082       	224.29803      	224.28226      	224.28651      	224.28127      	224.27103      	224.28123      	224.28426      	224.26813      	224.2608       	224.26384      	224.26797      	224.27621      	224.27504      	224.28947      	224.26245      	224.26698      	224.25526      	224.2745       	224.30663      	224.31631      	224.31102      	224.27287      	224.28435      	224.27939      	224.28294      	224.26028      	224.2822       	224.27538      	224.33095      	224.27692      	224.24806      	224.32492      	224.31885      	224.28345      	224.27403      	224.31006      	224.2969       	224.30867      	224.30496      	224.3002       	224.29962      	224.30768      	224.29362      	224.2816       	224.28635      	224.3059       	224.28874      	224.30531      	224.27979      	224.31447      	224.29637      	224.2965       	224.28873      	
